Time (s),EEG Fpz-Cz_Original,EEG Fpz-Cz_Filtered,EEG Pz-Oz_Original,EEG Pz-Oz_Filtered,EOG horizontal_Original,EOG horizontal_Filtered,Resp oro-nasal_Original,Resp oro-nasal_Filtered,EMG submental_Original,EMG submental_Filtered,Temp rectal_Original,Temp rectal_Filtered,Event marker_Original,Event marker_Filtered
0.0,5.016849816849817,5.016849816849817,-2.4673992673992546,-2.4673992673992546,16.50866910866916,16.50866910866916,-482000000.0,-482000000.0,3.552,3.552,37206451.612903185,37206451.612903185,919999999.9999999,919999999.9999999
0.01,-2.578754578754579,-2.578754578754579,1.4673992673992795,1.4673992673992795,16.01587301587307,16.01587301587307,-479674850.51202804,-479674850.51202804,3.5532156434224054,3.5532156434224054,37205159.62224009,37205159.62224009,919950202.6636397,919950202.6636397
0.02,1.3597069597069595,1.3597069597069595,-4.098901098901087,-4.098901098901087,9.60952380952386,9.60952380952386,-477059580.83689314,-477059580.83689314,3.5544247849123476,3.5544247849123476,37203907.17695059,37203907.17695059,919892908.3002461,919892908.3002461
0.03,-2.3912087912087916,-2.3912087912087916,-2.659340659340647,-2.659340659340647,1.7247863247863773,1.7247863247863773,-474153663.3989169,-474153663.3989169,3.555625857575564,3.555625857575564,37202694.43831581,37202694.43831581,919828162.2701575,919828162.2701575
0.04,-5.204395604395605,-5.204395604395605,-0.7399267399267278,-0.7399267399267278,7.63833943833949,7.63833943833949,-470956747.00628376,-470956747.00628376,3.556817299080904,3.556817299080904,37201521.545692585,37201521.545692585,919756014.7213455,919756014.7213455
0.05,-7.454945054945055,-7.454945054945055,-1.4117216117215996,-1.4117216117215996,2.710378510378563,2.710378510378563,-467468658.0627958,-467468658.0627958,3.5579975530337715,3.5579975530337715,37200388.61651252,37200388.61651252,919676520.5656786,919676520.5656786
0.06,-8.2989010989011,-8.2989010989011,-0.9318681318681197,-0.9318681318681197,0.2463980463980988,0.2463980463980988,-463689401.6666375,-463689401.6666375,3.5591650703473774,3.5591650703473774,37199295.74629573,37199295.74629573,919589739.452039,919589739.452039
0.07,-6.892307692307693,-6.892307692307693,1.8512820512820636,1.8512820512820636,-0.7391941391940867,-0.7391941391940867,-459619162.5949452,-459619162.5949452,3.5603183106106826,3.5603183106106826,37198243.00867929,37198243.00867929,919495735.7363204,919495735.7363204
0.08,-3.704029304029304,-3.704029304029304,-0.8358974358974236,-0.8358974358974236,1.2319902319902845,1.2319902319902845,-455258306.17304283,-455258306.17304283,3.5614557434518095,3.5614557434518095,37197230.455460235,37197230.455460235,919394578.4483122,919394578.4483122
0.09,-0.9846153846153847,-0.9846153846153847,-0.8358974358974236,-0.8358974358974236,5.174358974359027,5.174358974359027,-450607379.0272891,-450607379.0272891,3.5625758498958455,3.5625758498958455,37196258.116652824,37196258.116652824,919286341.2554764,919286341.2554764
0.1,2.203663003663003,2.203663003663003,-10.624908424908414,-10.624908424908414,-2.217582417582365,-2.217582417582365,-445667109.7205572,-445667109.7205572,3.5636771237157867,3.5636771237157867,37195326.000560455,37195326.000560455,919171102.423643,919171102.423643
0.11,2.016117216117216,2.016117216117216,-13.408058608058594,-13.408058608058594,-5.174358974358922,-5.174358974358922,-440438409.26944304,-440438409.26944304,3.564758072775558,3.564758072775558,37194434.09386173,37194434.09386173,919048944.7746397,919048944.7746397
0.12,1.641025641025641,1.641025641025641,-10.816849816849805,-10.816849816849805,-7.1455433455432935,-7.1455433455432935,-434922371.542388,-434922371.542388,3.5658172203638983,3.5658172203638983,37193582.36171091,37193582.36171091,918919955.6408689,918919955.6408689
0.13,-2.672527472527473,-2.672527472527473,-4.290842490842478,-4.290842490842478,-6.159951159951108,-6.159951159951108,-429120273.5379706,-429120273.5379706,3.5668531065180025,3.5668531065180025,37192770.74785194,37192770.74785194,918784226.8168635,918784226.8168635
0.14,-0.7970695970695972,-0.7970695970695972,-3.427106227106215,-3.427106227106215,-5.667155067155015,-5.667155067155015,-423033575.5427108,-423033575.5427108,3.5678642893357604,3.5678642893357604,37191999.174747236,37191999.174747236,918641854.5078344,918641854.5078344
0.15,1.3597069597069595,1.3597069597069595,-3.043223443223431,-3.043223443223431,-8.13113553113548,-8.13113553113548,-416663921.1678116,-416663921.1678116,3.5688493462754853,3.5688493462754853,37191267.54371953,37191267.54371953,918492939.2752477,918492939.2752477
0.16,2.8600732600732592,2.8600732600732592,-1.6036630036629915,-1.6036630036629915,-14.537484737484686,-14.537484737484686,-410013137.2643431,-410013137.2643431,3.5698068754420014,3.5698068754420014,37190575.7351079,37190575.7351079,918337585.9794483,918337585.9794483
0.17,-2.203663003663004,-2.203663003663004,-8.033699633699621,-8.033699633699621,-6.652747252747201,-6.652747252747201,-403083233.716459,-403083233.716459,3.570735496857969,3.570735496857969,37189923.6084368,37189923.6084368,918175903.719365,918175903.719365
0.18,0.5157509157509156,0.5157509157509156,-5.826373626373614,-5.826373626373614,-17.49426129426124,-17.49426129426124,-395876403.11231875,-395876403.11231875,3.5716338537193706,3.5716338537193706,37189311.0025992,37189311.0025992,918008005.7693269,918008005.7693269
0.19,5.8608058608058595,5.8608058608058595,-7.4578754578754465,-7.4578754578754465,-15.52307692307687,-15.52307692307687,-388395020.29247385,-388395020.29247385,3.5725006136340367,3.5725006136340367,37188737.73605204,37188737.73605204,917834009.5130274,917834009.5130274
0.2,-1.7347985347985346,-1.7347985347985346,-3.715018315018303,-3.715018315018303,-10.10231990231985,-10.10231990231985,-380641641.77556026,-380641641.77556026,3.5733344698421714,3.5733344698421714,37188203.60702533,37188203.60702533,917654036.3746673,917654036.3746673
0.21,-3.047619047619048,-3.047619047619048,-1.9875457875457754,-1.9875457875457754,-11.580708180708127,-11.580708180708127,-372619005.06122494,-372619005.06122494,3.574134142417779,3.574134142417779,37187708.39374369,37187708.39374369,917468211.7473147,917468211.7473147
0.22,2.8600732600732592,2.8600732600732592,-3.427106227106215,-3.427106227106215,-7.1455433455432935,-7.1455433455432935,-364330027.8102987,-364330027.8102987,3.5748983794499627,3.5748983794499627,37187251.8546607,37187251.8546607,917276664.9185268,917276664.9185268
0.23,7.83003663003663,7.83003663003663,-10.720879120879108,-10.720879120879108,-14.537484737484686,-14.537484737484686,-355777806.902315,-355777806.902315,3.57562595820304,3.57562595820304,37186833.72870547,37186833.72870547,917079528.9932626,917079528.9932626
0.24,2.953846153846153,2.953846153846153,-11.488644688644674,-11.488644688644674,-16.015873015872963,-16.015873015872963,-346965617.3705572,-346965617.3705572,3.576315686254503,3.576315686254503,37186453.73554142,37186453.73554142,916876940.8141491,916876940.8141491
0.25,-0.9846153846153847,-0.9846153846153847,-8.705494505494494,-8.705494505494494,-13.5518925518925,-13.5518925518925,-337896911.2149056,-337896911.2149056,3.5769664026097403,3.5769664026097403,37186111.57583712,37186111.57583712,916669040.8791189,916669040.8791189
0.26,-1.9223443223443226,-1.9223443223443226,-2.7553113553113433,-2.7553113553113433,-24.393406593406542,-24.393406593406542,-328575316.0928391,-328575316.0928391,3.57757697879262,3.57757697879262,37185806.93154865,37185806.93154865,916455973.2564934,916455973.2564934
0.27,-6.704761904761905,-6.704761904761905,-2.7553113553113433,-2.7553113553113433,-20.4510378510378,-20.4510378510378,-319004633.8890342,-319004633.8890342,3.5781463199109074,3.5781463199109074,37185539.46621343,37185539.46621343,916237885.4975411,916237885.4975411
0.28,-7.5487179487179485,-7.5487179487179485,-2.659340659340647,-2.659340659340647,-22.42222222222217,-22.42222222222217,-309188839.16408795,-309188839.16408795,3.5786733656956136,3.5786733656956136,37185308.82525556,37185308.82525556,916014928.5465685,916014928.5465685
0.29,-4.82930402930403,-4.82930402930403,0.603663003663016,0.603663003663016,-19.958241758241705,-19.958241758241705,-299132077.48297626,-299132077.48297626,3.579157091513297,3.579157091513297,37185114.63630162,37185114.63630162,915787256.6485939,915787256.6485939
0.3,-12.61245421245421,-12.61245421245421,3.962637362637375,3.962637362637375,-21.436630036629982,-21.436630036629982,-288838663.6239497,-288838663.6239497,3.5795965093504725,3.5795965093504725,37184956.50950754,37184956.50950754,915555027.2546632,915555027.2546632
0.31,-9.236630036630038,-9.236630036630038,-1.3157509157509035,-1.3157509157509035,-28.828571428571376,-28.828571428571376,-278313079.6686474,-278313079.6686474,3.5799906687691943,3.5799906687691943,37184834.03789559,37184834.03789559,915318400.9248495,915318400.9248495
0.32,-12.331135531135532,-12.331135531135532,-2.5633699633699507,-2.5633699633699507,-24.393406593406542,-24.393406593406542,-267559972.97429633,-267559972.97429633,3.580338657832989,3.580338657832989,37184746.79770181,37184746.79770181,915077541.2290139,915077541.2290139
0.33,-8.2989010989011,-8.2989010989011,-1.9875457875457754,-1.9875457875457754,-22.915018315018266,-22.915018315018266,-256584154.02895167,-256584154.02895167,3.5806396040022506,3.5806396040022506,37184694.34873299,37184694.34873299,914832614.6453642,914832614.6453642
0.34,-16.36336996336996,-16.36336996336996,-5.6344322344322215,-5.6344322344322215,-20.4510378510378,-20.4510378510378,-245390594.19081223,-245390594.19081223,3.580892674998355,3.580892674998355,37184676.234733336,37184676.234733336,914583790.4568907,914583790.4568907
0.35,-21.145787545787545,-21.145787545787545,-0.6439560439560317,-0.6439560439560317,-17.987057387057334,-17.987057387057334,-233984423.31273192,-233984423.31273192,3.581097079635631,3.581097079635631,37184691.98376021,37184691.98376021,914331240.6457263,914331240.6457263
0.36,-23.67765567765568,-23.67765567765568,1.5633699633699754,1.5633699633699754,-27.84297924297919,-27.84297924297919,-222370927.25313047,-222370927.25313047,3.581252068620486,3.581252068620486,37184741.10856909,37184741.10856909,914075139.7855076,914075139.7855076
0.37,-21.23956043956044,-21.23956043956044,-0.7399267399267278,-0.7399267399267278,-19.958241758241705,-19.958241758241705,-210555545.2745854,-210555545.2745854,3.5813569353169012,3.5813569353169012,37184823.107006975,37184823.107006975,913815664.9317904,913815664.9317904
0.38,-20.208058608058607,-20.208058608058607,1.2754578754578876,1.2754578754578876,-22.915018315018266,-22.915018315018266,-198543867.3314764,-198543867.3314764,3.5814110164776083,3.5814110164776083,37184937.46241403,37184937.46241403,913552995.510592,913552995.510592
0.39,-23.771428571428572,-23.771428571428572,-5.826373626373614,-5.826373626373614,-16.015873015872963,-16.015873015872963,-186341631.24812403,-186341631.24812403,3.5814136929402864,3.5814136929402864,37185083.64403335,37185083.64403335,913287313.2051299,913287313.2051299
0.4,-26.115750915750915,-26.115750915750915,0.411721611721624,0.411721611721624,-17.49426129426124,-17.49426129426124,-173954719.78895488,-173954719.78895488,3.581364390288059,3.581364390288059,37185261.10742825,37185261.10742825,913018801.8408208,913018801.8408208
0.41,-25.646886446886448,-25.646886446886448,1.5633699633699754,1.5633699633699754,-22.915018315018266,-22.915018315018266,-161389157.62229398,-161389157.62229398,3.58126257947375,3.58126257947375,37185469.29490706,37185469.29490706,912747647.2686164,912747647.2686164
0.42,-26.115750915750915,-26.115750915750915,4.3465201465201595,4.3465201465201595,-15.52307692307687,-15.52307692307687,-148651108.17947328,-148651108.17947328,3.5811077774072237,3.5811077774072237,37185707.63595475,37185707.63595475,912474037.246742,912474037.246742
0.43,-26.678388278388276,-26.678388278388276,2.9069597069597193,2.9069597069597193,-19.958241758241705,-19.958241758241705,-135746870.41101384,-135746870.41101384,3.5808995475053025,3.5808995475053025,37185975.54767119,37185975.54767119,912198161.3209169,912198161.3209169
0.44,-22.833699633699634,-22.833699633699634,-0.06813186813185584,-0.06813186813185584,-12.566300366300315,-12.566300366300315,-122682875.44172174,-122682875.44172174,3.580637500203686,3.580637500203686,37186272.43521585,37186272.43521585,911920210.7031281,911920210.7031281
0.45,-22.458608058608057,-22.458608058608057,2.9069597069597193,2.9069597069597193,-16.015873015872963,-16.015873015872963,-109465683.12660694,-109465683.12660694,3.580321293430382,3.580321293430382,37186597.692258395,37186597.692258395,911640378.1490324,911640378.1490324
0.46,-21.520879120879123,-21.520879120879123,5.402197802197814,5.402197802197814,-16.015873015872963,-16.015873015872963,-96101978.50961477,-96101978.50961477,3.579950633040181,3.579950633040181,37186950.70143473,37186950.70143473,911358857.8340691,911358857.8340691
0.47,-16.644688644688646,-16.644688644688646,1.1794871794871917,1.1794871794871917,-9.116727716727665,-9.116727716727665,-82598568.18722403,-82598568.18722403,3.579525273209724,3.579525273209724,37187330.83480852,37187330.83480852,911075845.2283518,911075845.2283518
0.48,-16.08205128205128,-16.08205128205128,1.7553113553113675,1.7553113553113675,-16.015873015872963,-16.015873015872963,-68962376.57904643,-68962376.57904643,3.5790450167927452,3.5790450167927452,37187737.454337545,37187737.454337545,910791536.970431,910791536.970431
0.49,-11.393406593406594,-11.393406593406594,-11.008791208791196,-11.008791208791196,-22.915018315018266,-22.915018315018266,-55200442.10762248,-55200442.10762248,3.5785097156351315,3.5785097156351315,37188169.91234449,37188169.91234449,910506130.7399923,910506130.7399923
0.5,-11.58095238095238,-11.58095238095238,-11.104761904761892,-11.104761904761892,-17.987057387057334,-17.987057387057334,-41319913.28968524,-41319913.28968524,3.577919270849446,3.577919270849446,37188627.55199206,37188627.55199206,910219825.1295904,910219825.1295904
0.51,-15.425641025641024,-15.425641025641024,-10.336996336996323,-10.336996336996323,-8.13113553113548,-8.13113553113548,-27328044.741225958,-27328044.741225958,3.577273633048597,3.577273633048597,37189109.70776161,37189109.70776161,909932819.5154805,909932819.5154805
0.52,-15.238095238095237,-15.238095238095237,-6.114285714285702,-6.114285714285702,-10.595115995115941,-10.595115995115941,-13232193.09876302,-13232193.09876302,3.5765728025383865,3.5765728025383865,37189615.705935724,37189615.705935724,909645313.9276463,909645313.9276463
0.53,-14.487912087912088,-14.487912087912088,-2.3714285714285595,-2.3714285714285595,-9.609523809523756,-9.609523809523756,960187.1407200743,960187.1407200743,3.575816829468696,3.575816829468696,37190144.86508338,37190144.86508338,909357508.919099,909357508.919099
0.54,-16.644688644688646,-16.644688644688646,-1.6996336996336874,-1.6996336996336874,-12.073504273504222,-12.073504273504222,15241547.858641807,15241547.858641807,3.5750058139430814,3.5750058139430814,37190696.49654812,37190696.49654812,909069605.4345396,909069605.4345396
0.55,-17.11355311355311,-17.11355311355311,-2.179487179487167,-2.179487179487167,-4.188766788766737,-4.188766788766737,29604251.629902985,29604251.629902985,3.574139906086632,3.574139906086632,37191269.90493847,37191269.90493847,908781804.6784573,908781804.6784573
0.56,-12.799999999999999,-12.799999999999999,3.866666666666679,3.866666666666679,-13.059096459096407,-13.059096459096407,44040576.1115357,44040576.1115357,3.573219306071937,3.573219306071937,37191864.38862033,37191864.38862033,908494307.9827652,908494307.9827652
0.57,-9.049084249084249,-9.049084249084249,0.9875457875457997,0.9875457875457997,-3.6959706959706433,-3.6959706959706433,58542718.502213605,58542718.502213605,3.572244264103048,3.572244264103048,37192479.24021106,37192479.24021106,908207316.6740501,908207316.6740501
0.58,-6.1421245421245425,-6.1421245421245425,4.634432234432246,4.634432234432246,-12.073504273504222,-12.073504273504222,73102800.06986256,73102800.06986256,3.5712150803573817,3.5712150803573817,37193113.74707469,37193113.74707469,907921031.9405222,907921031.9405222
0.59,-9.049084249084249,-9.049084249084249,0.699633699633712,0.699633699633712,-1.7247863247862725,-1.7247863247862725,87712870.7445562,87712870.7445562,3.5701321048855297,3.5701321048855297,37193767.191818155,37193767.191818155,907635654.6987653,907635654.6987653
0.6,-7.5487179487179485,-7.5487179487179485,0.7956043956044079,0.7956043956044079,0.7391941391941916,0.7391941391941916,102364913.77383134,102364913.77383134,3.568995737468958,3.568995737468958,37194438.85278792,37194438.85278792,907351385.460354,907351385.460354
0.61,-8.58021978021978,-8.58021978021978,-3.523076923076911,-3.523076923076911,-1.2319902319901797,-1.2319902319901797,117050850.43750195,117050850.43750195,3.5678064274356576,3.5678064274356576,37195128.004566915,37195128.004566915,907068424.1984503,907068424.1984503
0.62,-5.485714285714286,-5.485714285714286,-3.427106227106215,-3.427106227106215,-5.174358974358922,-5.174358974358922,131762544.81900913,131762544.81900913,3.5665646734337826,3.5665646734337826,37195833.91847095,37195833.91847095,906786970.21445,906786970.21445
0.63,-2.672527472527473,-2.672527472527473,-1.0278388278388157,-1.0278388278388157,-5.174358974358922,-5.174358974358922,146491808.63029408,146491808.63029408,3.5652710231634286,3.5652710231634286,37196555.86304491,37196555.86304491,906507222.0047774,906507222.0047774
0.64,-1.9223443223443226,-1.9223443223443226,-1.7956043956043835,-1.7956043956043835,-12.073504273504222,-12.073504273504222,161230406.0871369,161230406.0871369,3.563926073066643,3.563926073066643,37197293.10455795,37197293.10455795,906229377.1279136,906229377.1279136
0.65,-5.767032967032966,-5.767032967032966,4.250549450549462,4.250549450549462,1.7247863247863773,1.7247863247863773,175970058.83186328,175970058.83186328,3.5625304679758902,3.5625304679758902,37198044.90749709,37198044.90749709,905953632.0717528,905953632.0717528
0.66,-5.954578754578754,-5.954578754578754,7.513553113553125,7.513553113553125,9.60952380952386,9.60952380952386,190702450.90028048,190702450.90028048,3.5610849007211476,3.5610849007211476,37198810.5350596,37198810.5350596,905680182.1213695,905680182.1213695
0.67,-4.360439560439561,-4.360439560439561,3.1948717948718075,3.1948717948718075,5.174358974359027,5.174358974359027,205419233.72966346,205419233.72966346,3.559590111695892,3.559590111695892,37199589.24964299,37199589.24964299,905409221.2272891,905409221.2272891
0.68,-5.110622710622711,-5.110622710622711,5.594139194139206,5.594139194139206,7.63833943833949,7.63833943833949,220112031.20458257,220112031.20458257,3.5580468883822864,3.5580468883822864,37200380.313333124,37200380.313333124,905140941.8743589,905140941.8743589
0.69,-5.954578754578754,-5.954578754578754,2.5230769230769354,2.5230769230769354,6.6527472527473055,6.6527472527473055,234772444.73732013,234772444.73732013,3.5564560648358183,3.5564560648358183,37201182.98838912,37201182.98838912,904875534.9512905,904875534.9512905
0.7,-3.797802197802198,-3.797802197802198,0.603663003663016,0.603663003663016,7.63833943833949,7.63833943833949,249392058.3796024,249392058.3796024,3.5548185211298042,3.5548185211298042,37201996.537725605,37201996.537725605,904613189.6209885,904613189.6209885
0.71,-0.7032967032967035,-0.7032967032967035,-2.9472527472527346,-2.9472527472527346,4.681562881562934,4.681562881562934,263962443.96233642,263962443.96233642,3.5531351827601223,3.5531351827601223,37202820.22539139,37202820.22539139,904354093.1917269,904354093.1917269
0.72,-3.797802197802198,-3.797802197802198,0.603663003663016,0.603663003663016,4.681562881562934,4.681562881562934,278475166.2600176,278475166.2600176,3.5514070200105743,3.5514070200105743,37203653.3170445,37203653.3170445,904098430.9892905,904098430.9892905
0.73,-5.016849816849817,-5.016849816849817,-0.9318681318681197,-0.9318681318681197,3.6959706959707486,3.6959706959707486,292921788.1764475,292921788.1764475,3.5496350472793705,3.5496350472793705,37204495.08042341,37204495.08042341,903846386.2301438,903846386.2301438
0.74,-2.9538461538461536,-2.9538461538461536,3.386813186813199,3.386813186813199,15.523076923076975,15.523076923076975,307293875.9483809,307293875.9483809,3.5478203223671705,3.5478203223671705,37205344.785813294,37205344.785813294,903598139.8957348,903598139.8957348
0.75,-1.5472527472527475,-1.5472527472527475,3.770695970695983,3.770695970695983,11.580708180708232,11.580708180708232,321583004.3636953,321583004.3636953,3.5459639457272405,3.5459639457272405,37206201.706508406,37206201.706508406,903353870.6080112,903353870.6080112
0.76,-1.4534798534798534,-1.4534798534798534,9.720879120879134,9.720879120879134,16.50866910866916,16.50866910866916,335780761.99066734,335780761.99066734,3.544067059678278,3.544067059678278,37207065.11926875,37207065.11926875,903113754.5062429,903113754.5062429
0.77,-3.235164835164835,-3.235164835164835,8.185347985347999,8.185347985347999,8.131135531135584,8.131135531135584,349878756.4149161,349878756.4149161,3.54213084758045,3.54213084758045,37207934.30477188,37207934.30477188,902877965.1252294,902877965.1252294
0.78,-0.6095238095238097,-0.6095238095238097,6.361904761904774,6.361904761904774,12.073504273504327,12.073504273504327,363868619.480562,363868619.480562,3.5401565329753035,3.5401565329753035,37208808.54805899,37208808.54805899,902646673.2749872,902646673.2749872
0.79,-4.360439560439561,-4.360439560439561,0.31575091575092806,0.31575091575092806,16.50866910866916,16.50866910866916,377742012.5321466,377742012.5321466,3.538145378690166,3.538145378690166,37209687.13897495,37209687.13897495,902420046.9219996,902420046.9219996
0.8,-3.61025641025641,-3.61025641025641,5.210256410256422,5.210256410256422,14.044688644688698,14.044688644688698,391490631.65383554,391490631.65383554,3.5360986859077292,3.5360986859077292,37210569.372602455,37210569.372602455,902198251.0721073,902198251.0721073
0.81,-2.484981684981685,-2.484981684981685,1.0835164835164957,1.0835164835164957,17.00146520146525,17.00146520146525,405106212.90243757,405106212.90243757,3.5340177932015044,3.5340177932015044,37211454.549689144,37211454.549689144,901981447.6551332,901981447.6551332
0.82,-0.32820512820512837,-0.32820512820512837,5.882051282051295,5.882051282051295,15.030280830280883,15.030280830280883,418580537.53075266,418580537.53075266,3.5319040755379265,3.5319040755379265,37212341.97706874,37212341.97706874,901769795.411321,901769795.411321
0.83,-0.8908424908424909,-0.8908424908424909,3.962637362637375,3.962637362637375,17.00146520146525,17.00146520146525,431905437.19777465,431905437.19777465,3.5297589432458065,3.5297589432458065,37213230.96807417,37213230.96807417,901563449.779669,901563449.779669
0.84,-1.3597069597069598,-1.3597069597069598,13.84761904761906,13.84761904761906,25.378998778998834,25.378998778998834,445072799.162265,445072799.162265,3.527583840954016,3.527583840954016,37214120.84294439,37214120.84294439,901362562.7882358,901362562.7882358
0.85,-8.861538461538462,-8.861538461538462,15.095238095238109,15.095238095238109,18.47985347985353,18.47985347985353,458074571.45622224,458074571.45622224,3.525380246498126,3.525380246498126,37215010.92922279,37215010.92922279,901167282.9465094,901167282.9465094
0.86,-10.455677655677654,-10.455677655677654,18.35824175824177,18.35824175824177,17.98705738705744,17.98705738705744,470902768.0347792,470902768.0347792,3.523149669796932,3.523149669796932,37215900.56214833,37215900.56214833,900977755.1399097,900977755.1399097
0.87,-7.173626373626373,-7.173626373626373,10.104761904761915,10.104761904761915,23.900610500610554,23.900610500610554,483549473.89906013,483549473.89906013,3.5208936516997094,3.5208936516997094,37216789.08503839,37216789.08503839,900794120.5265024,900794120.5265024
0.88,-6.1421245421245425,-6.1421245421245425,8.665201465201479,8.665201465201479,22.91501831501837,22.91501831501837,496006850.18855387,496006850.18855387,3.518613762805086,3.518613762805086,37217675.849663116,37217675.849663116,900616516.4360055,900616516.4360055
0.89,-5.298168498168498,-5.298168498168498,3.578754578754591,3.578754578754591,17.98705738705744,17.98705738705744,508267139.23955786,508267139.23955786,3.516311602252491,3.516311602252491,37218560.21661165,37218560.21661165,900445076.2711598,900445076.2711598
0.9,-5.298168498168498,-5.298168498168498,-1.5076923076922955,-1.5076923076922955,8.131135531135584,8.131135531135584,520322669.6062751,520322669.6062751,3.5139887964871095,3.5139887964871095,37219441.55564942,37219441.55564942,900279929.4115441,900279929.4115441
0.91,-6.048351648351648,-6.048351648351648,-0.6439560439560317,-0.6439560439560317,14.044688644688698,14.044688644688698,532165861.04115504,532165861.04115504,3.5116469979993217,3.5116469979993217,37220319.246066175,37220319.246066175,900121201.1198943,900121201.1198943
0.92,-1.1721611721611722,-1.1721611721611722,2.6190476190476315,2.6190476190476315,35.72771672771678,35.72771672771678,543789229.4310964,543789229.4310964,3.5092878840396406,3.5092878840396406,37221192.677015126,37221192.677015126,899969012.4510127,899969012.4510127
0.93,3.6102564102564094,3.6102564102564094,7.801465201465214,7.801465201465214,29.814163614163668,29.814163614163668,555185391.6861492,555185391.6861492,3.5069131553101416,3.5069131553101416,37222061.24784286,37222061.24784286,899823480.1633284,899823480.1633284
0.94,2.953846153846153,2.953846153846153,12.983882783882796,12.983882783882796,21.929426129426183,21.929426129426183,566347070.5773792,566347070.5773792,3.50452453463345,3.50452453463345,37222924.36840915,37222924.36840915,899684716.6331793,899684716.6331793
0.95,-7.83003663003663,-7.83003663003663,10.872527472527485,10.872527472527485,28.335775335775384,28.335775335775384,577267099.5205805,577267099.5205805,3.5021237656003303,3.5021237656003303,37223781.4593975,37223781.4593975,899552829.7718807,899552829.7718807
0.96,-26.584615384615386,-26.584615384615386,12.983882783882796,12.983882783882796,30.79975579975585,30.79975579975585,587938427.3025652,587938427.3025652,3.499712611196981,3.499712611196981,37224631.952615485,37224631.952615485,899427922.9456484,899427922.9456484
0.97,-14.394139194139195,-14.394139194139195,9.33699633699635,9.33699633699635,26.85738705738711,26.85738705738711,598354122.7467713,598354122.7467713,3.4972928524131026,3.4972928524131026,37225475.29128508,37225475.29128508,899310094.8984377,899310094.8984377
0.98,-49.18388278388279,-49.18388278388279,8.953113553113564,8.953113553113564,16.01587301587307,16.01587301587307,608507379.3149837,608507379.3149837,3.4948662868318814,3.4948662868318814,37226310.9303227,37226310.9303227,899199439.6777568,899199439.6777568
0.99,-63.812454212454206,-63.812454212454206,2.1391941391941516,2.1391941391941516,27.842979242979297,27.842979242979297,618391519.6419849,618391519.6419849,3.4924347272030296,3.4924347272030296,37227138.33660884,37227138.33660884,899096046.5635214,899096046.5635214
1.0,-64.0,-64.0,4.250549450549462,4.250549450549462,10.595115995116046,10.595115995116046,628000000.0,628000000.0,3.4900000000000007,3.4900000000000007,37227956.98924731,37227956.98924731,899000000.0000001,899000000.0000001
1.01,-63.9062271062271,-63.9062271062271,0.9875457875457997,0.9875457875457997,-7.6383394383393854,-7.6383394383393854,637326414.6898358,637326414.6898358,3.4875639439625736,3.4875639439625736,37228766.3798134,37228766.3798134,898911379.5309117,898911379.5309117
1.02,-62.968498168498165,-62.968498168498165,1.6593406593406714,1.6593406593406714,-1.2319902319901797,-1.2319902319901797,646364500.3556631,646364500.3556631,3.4851284086259797,3.4851284086259797,37229566.01259173,37229566.01259173,898830259.7377267,898830259.7377267
1.03,-61.37435897435897,-61.37435897435897,3.0029304029304154,3.0029304029304154,-8.62393162393157,-8.62393162393157,655108140.220427,655108140.220427,3.4826952528377535,3.4826952528377535,37230355.4048029,37230355.4048029,898756710.1812247,898756710.1812247
1.04,-59.498901098901094,-59.498901098901094,3.962637362637375,3.962637362637375,-14.537484737484686,-14.537484737484686,663551368.2389326,663551368.2389326,3.4802663432635303,3.4802663432635303,37231134.08681915,37231134.08681915,898690795.3463554,898690795.3463554
1.05,-56.3106227106227,-56.3106227106227,8.56923076923078,8.56923076923078,-25.378998778998724,-25.378998778998724,671688373.1656834,671688373.1656834,3.4778435528829905,3.4778435528829905,37231901.6023691,37231901.6023691,898632574.590458,898632574.590458
1.06,-50.68424908424908,-50.68424908424908,8.56923076923078,8.56923076923078,-42.13406593406589,-42.13406593406589,679513502.5346208,679513502.5346208,3.47542875947717,3.47542875947717,37232657.50873091,37232657.50873091,898582102.094871,898582102.094871
1.07,-48.996336996337,-48.996336996337,7.801465201465214,7.801465201465214,-60.36752136752132,-60.36752136752132,687021266.5479529,687021266.5479529,3.4730238441084174,3.4730238441084174,37233401.37691468,37233401.37691468,898539426.819994,898539426.819994
1.08,-36.055677655677655,-36.055677655677655,-2.8512820512820394,-2.8512820512820394,-71.70183150183144,-71.70183150183144,694206341.8713251,694206341.8713251,3.4706306895941714,3.4706306895941714,37234132.79183303,37234132.79183303,898504592.4638255,898504592.4638255
1.09,-36.33699633699633,-36.33699633699633,-5.1545787545787425,-5.1545787545787425,-93.38485958485954,-93.38485958485954,701063575.3326365,701063575.3326365,3.4682511789758634,3.4682511789758634,37234851.352460645,37234851.352460645,898477637.4240259,898477637.4240259
1.1,-25.834432234432235,-25.834432234432235,-3.139194139194127,-3.139194139194127,-111.61831501831497,-111.61831501831497,707587987.5218697,707587987.5218697,3.46588719398419,3.46588719398419,37235556.671982236,37235556.671982236,898458594.7635387,898458594.7635387
1.11,-17.582417582417584,-17.582417582417584,1.0835164835164957,1.0835164835164957,-118.02466422466416,-118.02466422466416,713774776.2893634,713774776.2893634,3.4635406135019777,3.4635406135019777,37236248.37792892,37236248.37792892,898447492.1798038,898447492.1798038
1.12,-5.579487179487179,-5.579487179487179,8.953113553113564,8.953113553113564,-129.8517704517704,-129.8517704517704,719619320.1400172,719619320.1400172,3.4612133120259774,3.4612133120259774,37236926.112303324,37236926.112303324,898444351.9775988,898444351.9775988
1.13,-3.516483516483516,-3.516483516483516,9.241025641025654,9.241025641025654,-132.80854700854695,-132.80854700854695,725117181.5209882,725117181.5209882,3.458907158128777,3.458907158128777,37237589.531692944,37237589.531692944,898449191.0455294,898449191.0455294
1.14,9.142857142857142,9.142857142857142,9.432967032967046,9.432967032967046,-148.08522588522584,-148.08522588522584,730264110.0004964,730264110.0004964,3.4566240129221693,3.4566240129221693,37238238.3073721,37238238.3073721,898462020.8362072,898462020.8362072
1.15,16.36336996336996,16.36336996336996,5.01831501831503,5.01831501831503,-145.62124542124536,-145.62124542124536,735056045.3354429,735056045.3354429,3.454365728523194,3.454365728523194,37238872.12539227,37238872.12539227,898482847.3501287,898482847.3501287
1.16,25.365567765567764,25.365567765567764,4.442490842490854,4.442490842490854,-137.2437118437118,-137.2437118437118,739489120.4255908,739489120.4255908,3.4521341465241497,3.4521341465241497,37239490.68666098,37239490.68666098,898511671.1232835,898511671.1232835
1.17,31.179487179487175,31.179487179487175,-4.194871794871783,-4.194871794871783,-132.31575091575087,-132.31575091575087,743559664.1521527,743559664.1521527,3.4499310964678562,3.4499310964678562,37240093.70700892,37240093.70700892,898548487.2185144,898548487.2185144
1.18,31.92967032967033,31.92967032967033,-8.609523809523798,-8.609523809523798,-134.77973137973134,-134.77973137973134,747264204.0986905,747264204.0986905,3.447758394329396,3.447758394329396,37240680.91724611,37240680.91724611,898593285.2206349,898593285.2206349
1.19,29.304029304029303,29.304029304029303,-5.346520146520135,-5.346520146520135,-126.40219780219776,-126.40219780219776,750599469.1523116,750599469.1523116,3.445617841005621,3.445617841005621,37241252.06320574,37241252.06320574,898646049.2353331,898646049.2353331
1.2,31.554578754578756,31.554578754578756,0.027838827838840115,0.027838827838840115,-122.9526251526251,-122.9526251526251,753562391.9832177,753562391.9832177,3.443511220813699,3.443511220813699,37241806.90577761,37241806.90577761,898706757.8918619,898706757.8918619
1.21,33.61758241758242,33.61758241758242,3.6747252747252874,3.6747252747252874,-119.99584859584853,-119.99584859584853,756150111.4007525,756150111.4007525,3.441440299999906,3.441440299999906,37242345.22092939,37242345.22092939,898775384.3495347,898775384.3495347
1.22,38.49377289377289,38.49377289377289,9.624908424908439,9.624908424908439,-116.5462759462759,-116.5462759462759,758359974.5841582,758359974.5841582,3.4394068252599546,3.4394068252599546,37242866.79971688,37242866.79971688,898851896.3080221,898851896.3080221
1.23,37.36849816849817,37.36849816849817,15.575091575091587,15.575091575091587,-110.13992673992668,-110.13992673992668,760189539.1863439,760189539.1863439,3.437412522272079,3.437412522272079,37243371.44828311,37243371.44828311,898936256.0214666,898936256.0214666
1.24,35.86813186813187,35.86813186813187,15.383150183150196,15.383150183150196,-101.76239316239311,-101.76239316239311,761636575.3090485,761636575.3090485,3.435459094244091,3.435459094244091,37243858.987846166,37243858.987846166,899028420.3164076,899028420.3164076
1.25,35.493040293040295,35.493040293040295,20.565567765567778,20.565567765567778,-98.80561660561655,-98.80561660561655,762699067.3478522,762699067.3478522,3.4335482204756587,3.4335482204756587,37244329.254675895,37244329.254675895,899128340.6135136,899128340.6135136
1.26,36.52454212454212,36.52454212454212,13.655677655677668,13.655677655677668,-94.86324786324782,-94.86324786324782,763375215.7055988,763375215.7055988,3.431681554936983,3.431681554936983,37244782.10005983,37244782.10005983,899235962.9531332,899235962.9531332
1.27,33.61758241758242,33.61758241758242,14.03956043956045,14.03956043956045,-98.80561660561655,-98.80561660561655,763663438.3728501,763663438.3728501,3.4298607248650974,3.4298607248650974,37245217.39025788,37245217.39025788,899351228.0246335,899351228.0246335
1.28,34.74285714285714,34.74285714285714,7.41758241758243,7.41758241758243,-85.00732600732596,-85.00732600732596,763562372.3740996,763562372.3740996,3.428087329378954,3.428087329378954,37245635.00644667,37245635.00644667,899474071.1995459,899474071.1995459
1.29,38.4,38.4,2.6190476190476315,2.6190476190476315,-84.51452991452987,-84.51452991452987,763070875.0785568,763070875.0785568,3.4263629381144707,3.4263629381144707,37246034.8446529,37246034.8446529,899604422.568478,899604422.568478
1.3,44.49523809523809,44.49523809523809,4.250549450549462,4.250549450549462,-86.97851037851034,-86.97851037851034,762188025.3743834,762188025.3743834,3.4246890898807063,3.4246890898807063,37246416.81567626,37246416.81567626,899742206.9817988,899742206.9817988
1.31,11.956043956043956,11.956043956043956,10.200732600732612,10.200732600732612,-75.64420024420019,-75.64420024420019,760913124.7053877,760913124.7053877,3.4230672913382767,3.4230672913382767,37246780.84500222,37246780.84500222,899887344.0940727,899887344.0940727
1.32,30.52307692307692,30.52307692307692,10.96849816849818,10.96849816849818,-90.92087912087906,-90.92087912087906,759245697.9692369,759245697.9692369,3.42149901570118,3.42149901570118,37247126.872703984,37247126.872703984,900039748.4122173,900039748.4122173
1.33,30.8043956043956,30.8043956043956,9.528937728937741,9.528937728937741,-93.87765567765562,-93.87765567765562,757185494.2763631,757185494.2763631,3.419985701463072,3.419985701463072,37247454.85333499,37247454.85333499,900199329.3473716,900199329.3473716
1.34,33.242490842490845,33.242490842490845,12.504029304029315,12.504029304029315,-90.92087912087906,-90.92087912087906,754732487.5688146,754732487.5688146,3.418528751149134,3.418528751149134,37247764.755810924,37247764.755810924,900365991.27044,900365991.27044
1.35,29.77289377289377,29.77289377289377,11.832234432234445,11.832234432234445,-94.86324786324782,-94.86324786324782,751886877.0984114,751886877.0984114,3.4171295300945723,3.4171295300945723,37248056.56328235,37248056.56328235,900539633.5712913,900539633.5712913
1.36,30.8043956043956,30.8043956043956,3.866666666666679,3.866666666666679,-91.41367521367516,-91.41367521367516,748649087.7636393,748649087.7636393,3.4157893652507987,3.4157893652507987,37248330.27299739,37248330.27299739,900720150.7215806,900720150.7215806
1.37,24.615384615384617,24.615384615384617,10.680586080586094,10.680586080586094,-82.0505494505494,-82.0505494505494,745019770.3048254,745019770.3048254,3.414509544020319,3.414509544020319,37248585.89615522,37248585.89615522,900907432.3411552,900907432.3411552
1.38,19.270329670329666,19.270329670329666,11.352380952380964,11.352380952380964,-82.5433455433455,-82.5433455433455,740999801.3572236,740999801.3572236,3.413291313121323,3.413291313121323,37248823.45775027,37248823.45775027,901101363.2680165,901101363.2680165
1.39,18.426373626373625,18.426373626373625,6.169963369963382,6.169963369963382,-82.5433455433455,-82.5433455433455,736590283.36173,736590283.36173,3.4121358774829673,3.4121358774829673,37249042.99640696,37249042.99640696,901301823.6317917,901301823.6317917
1.4,19.926739926739927,19.926739926739927,11.352380952380964,11.352380952380964,-78.60097680097675,-78.60097680097675,731792544.3330555,731792544.3330555,3.4110443991723054,3.4110443991723054,37249244.56420622,37249244.56420622,901508688.9306847,901508688.9306847
1.41,17.676190476190477,17.676190476190477,15.47912087912089,15.47912087912089,-73.18021978021973,-73.18021978021973,726608137.485258,726608137.485258,3.41001799635377,3.41001799635377,37249428.226502866,37249428.226502866,901721830.1118448,901721830.1118448
1.42,20.676923076923078,20.676923076923078,16.630769230769243,16.630769230769243,-75.64420024420019,-75.64420024420019,721038840.7146505,721038840.7146505,3.4090577422821458,3.4090577422821458,37249594.06173455,37249594.06173455,901941113.6551288,901941113.6551288
1.43,25.271794871794867,25.271794871794867,11.736263736263748,11.736263736263748,-62.338705738705684,-62.338705738705684,715086655.9401836,715086655.9401836,3.4081646643298926,3.4081646643298926,37249742.161222495,37249742.161222495,902166401.6601877,902166401.6601877
1.44,-6.423443223443224,-6.423443223443224,10.200732600732612,10.200732600732612,-63.81709401709396,-63.81709401709396,708753808.3014987,708753808.3014987,3.407339743049668,3.407339743049668,37249872.62896441,37249872.62896441,902397551.9368405,902397551.9368405
1.45,-7.454945054945055,-7.454945054945055,9.912820512820526,9.912820512820526,-64.80268620268613,-64.80268620268613,702042745.2149465,702042745.2149465,3.4065839112728677,3.4065839112728677,37249985.58141919,37249985.58141919,902634418.098671,902634418.098671
1.46,-16.832234432234433,-16.832234432234433,9.81684981684983,9.81684981684983,-73.18021978021973,-73.18021978021973,694956135.2879596,694956135.2879596,3.4058980532449983,3.4058980532449983,37250081.14728424,37250081.14728424,902876849.659801,902876849.659801
1.47,-38.49377289377289,-38.49377289377289,5.114285714285727,5.114285714285727,-33.26373626373621,-33.26373626373621,687496867.0922508,687496867.0922508,3.40528300379863,3.40528300379863,37250159.46726549,37250159.46726549,903124692.1347704,903124692.1347704
1.48,-47.4959706959707,-47.4959706959707,0.9875457875457997,0.9875457875457997,-24.886202686202637,-24.886202686202637,679668047.7964278,679668047.7964278,3.4047395475646525,3.4047395475646525,37250220.6938401,37250220.6938401,903377787.1414729,903377787.1414729
1.49,-47.87106227106227,-47.87106227106227,1.9472527472527599,1.9472527472527599,11.580708180708232,11.580708180708232,671473001.6586797,671473001.6586797,3.4042684182225704,3.4042684182225704,37250264.99101239,37250264.99101239,903635972.5070744,903635972.5070744
1.5,-48.05860805860806,-48.05860805860806,4.538461538461551,4.538461538461551,43.61245421245427,43.61245421245427,662915268.3803076,662915268.3803076,3.4038702977904762,3.4038702977904762,37250292.534063175,37250292.534063175,903899082.3768598,903899082.3768598
1.51,-47.4959706959707,-47.4959706959707,5.402197802197814,5.402197802197814,41.1484737484738,41.1484737484738,653998601.3209529,653998601.3209529,3.4035458159553706,3.4035458159553706,37250303.50929253,37250303.50929253,904166947.325923,904166947.325923
1.52,-43.36996336996337,-43.36996336996337,3.0029304029304154,3.0029304029304154,42.626862026862085,42.626862026862085,644726965.5764734,644726965.5764734,3.4032955494444064,3.4032955494444064,37250298.11375669,37250298.11375669,904439394.4736477,904439394.4736477
1.53,-35.774358974358975,-35.774358974358975,6.169963369963382,6.169963369963382,38.191697191697244,38.191697191697244,635104535.9205079,635104535.9205079,3.4031200214376685,3.4031200214376685,37250276.554998614,37250276.554998614,904716247.6008925,904716247.6008925
1.54,-23.115018315018315,-23.115018315018315,8.185347985347999,8.185347985347999,34.2493284493285,34.2493284493285,625135694.6108644,625135694.6108644,3.403019701022989,3.403019701022989,37250239.05077342,37250239.05077342,904997327.269815,904997327.269815
1.55,-15.613186813186811,-15.613186813186811,8.56923076923078,8.56923076923078,43.119658119658176,43.119658119658176,614825029.0619537,614825029.0619537,3.402995002693348,3.402995002693348,37250185.82876814,37250185.82876814,905282450.9462482,905282450.9462482
1.56,-6.6109890109890115,-6.6109890109890115,9.720879120879134,9.720879120879134,33.26373626373631,33.26373626373631,604177329.384584,604177329.384584,3.403046285887298,3.403046285887298,37250117.12631647,37250117.12631647,905571433.1245587,905571433.1245587
1.57,4.36043956043956,4.36043956043956,4.3465201465201595,4.3465201465201595,39.670085470085525,39.670085470085525,593197585.7945222,593197585.7945222,3.4031738545728634,3.4031738545728634,37250033.19010859,37250033.19010859,905864085.4549038,905864085.4549038
1.58,13.737728937728937,13.737728937728937,4.3465201465201595,4.3465201465201595,37.206105006105055,37.206105006105055,581890985.8913105,581890985.8913105,3.403377956875326,3.403377956875326,37249934.27589651,37249934.27589651,906160216.8727955,906160216.8727955
1.59,16.832234432234433,16.832234432234433,3.578754578754591,3.578754578754591,46.56923076923083,46.56923076923083,570262911.8089218,570262911.8089218,3.403658784749245,3.403658784749245,37249820.64819503,37249820.64819503,906459633.7308997,906459633.7308997
1.6,28.835164835164836,28.835164835164836,0.027838827838840115,0.027838827838840115,40.6556776556777,40.6556776556777,558318937.2399167,558318937.2399167,3.4040164736950667,3.4040164736950667,37249692.57997889,37249692.57997889,906762139.932974,906762139.932974
1.61,36.618315018315016,36.618315018315016,-3.810989010988999,-3.810989010988999,48.047619047619094,48.047619047619094,546064824.3348576,546064824.3348576,3.4044511025205835,3.4044511025205835,37249550.352375686,37249550.352375686,907067537.0698591,907067537.0698591
1.62,37.180952380952384,37.180952380952384,-0.2600732600732478,-0.2600732600732478,38.68449328449334,38.68449328449334,533506520.4788158,533506520.4788158,3.4049626931475396,3.4049626931475396,37249394.25435589,37249394.25435589,907375624.5574322,907375624.5574322
1.63,44.4014652014652,44.4014652014652,4.826373626373638,4.826373626373638,39.670085470085525,39.670085470085525,520650154.9468904,520650154.9468904,3.4055512104635737,3.4055512104635737,37249224.58241913,37249224.58241913,907686199.7764318,907686199.7764318
1.64,41.77582417582417,41.77582417582417,4.05860805860807,4.05860805860807,35.72771672771678,35.72771672771678,507502035.44073987,507502035.44073987,3.4062165622197007,3.4062165622197007,37249041.64027794,37249041.64027794,907999058.2140521,907999058.2140521
1.65,47.21465201465201,47.21465201465201,3.290842490842503,3.290842490842503,40.6556776556777,40.6556776556777,494068644.5082123,494068644.5082123,3.406958598973467,3.406958598973467,37248845.73853854,37248845.73853854,908313993.6072279,908313993.6072279
1.66,47.120879120879124,47.120879120879124,6.169963369963382,6.169963369963382,35.23492063492069,35.23492063492069,480356635.8482363,480356635.8482363,3.407777114077907,3.407777114077907,37248637.19437962,37248637.19437962,908630798.0874934,908630798.0874934
1.67,46.65201465201465,46.65201465201465,5.594139194139206,5.594139194139206,33.75653235653241,33.75653235653241,466372830.5032072,466372830.5032072,3.40867184371633,3.40867184371633,37248416.33122844,37248416.33122844,908949262.3273289,908949262.3273289
1.68,45.24542124542125,45.24542124542125,8.185347985347999,8.185347985347999,35.72771672771678,35.72771672771678,452124212.9411935,452124212.9411935,3.4096424669830396,3.4096424669830396,37248183.478435695,37248183.478435695,909269175.6878961,909269175.6878961
1.69,46.74578754578754,46.74578754578754,5.882051282051295,5.882051282051295,45.09084249084254,45.09084249084254,437617927.0303517,437617927.0303517,3.410688606009915,3.410688606009915,37247938.97094849,37247938.97094849,909590326.3680491,909590326.3680491
1.7,44.96410256410256,44.96410256410256,3.4827838827838953,3.4827838827838953,47.55482295482301,47.55482295482301,422861271.90801305,422861271.90801305,3.411809826138852,3.411809826138852,37247683.14898214,37247683.14898214,909912501.5545328,909912501.5545328
1.71,42.43223443223443,42.43223443223443,-2.8512820512820394,-2.8512820512820394,45.09084249084254,45.09084249084254,407861697.7469835,407861697.7469835,3.413005636139966,3.413005636139966,37247416.35769098,37247416.35769098,910235487.5732526,910235487.5732526
1.72,40.838095238095235,40.838095238095235,0.50769230769232,0.50769230769232,31.29255189255195,31.29255189255195,392626801.4216655,392626801.4216655,3.4142754884754494,3.4142754884754494,37247138.94683834,37247138.94683834,910559070.0415244,910559070.0415244
1.73,44.87032967032967,44.87032967032967,-0.16410256410255178,-0.16410256410255178,46.56923076923083,46.56923076923083,377164322.0766735,377164322.0766735,3.4156187796089337,3.4156187796089337,37246851.27046617,37246851.27046617,910883034.0211822,910883034.0211822
1.74,36.33699633699633,36.33699633699633,4.154578754578767,4.154578754578767,29.321367521367577,29.321367521367577,361482136.60069066,361482136.60069066,3.417034850360141,3.417034850360141,37246553.68656457,37246553.68656457,911207164.1724508,911207164.1724508
1.75,33.05494505494505,33.05494505494505,0.12380952380953614,0.12380952380953614,36.22051282051287,36.22051282051287,345588255.008375,345588255.008375,3.418522986304614,3.418522986304614,37246246.55674111,37246246.55674111,911531244.908466,911531244.908466
1.76,38.11868131868132,38.11868131868132,4.634432234432246,4.634432234432246,39.670085470085525,39.670085470085525,329490815.7331857,329490815.7331857,3.4200824182182648,3.4200824182182648,37245930.24589083,37245930.24589083,911855060.5503448,911855060.5503448
1.77,29.116483516483516,29.116483516483516,5.594139194139206,5.594139194139206,29.814163614163668,29.814163614163668,313198080.8340633,313198080.8340633,3.4217123225663983,3.4217123225663983,37245605.121866606,37245605.121866606,912178395.4826801,912178395.4826801
1.78,26.95970695970696,26.95970695970696,2.1391941391941516,2.1391941391941516,26.85738705738711,26.85738705738711,296718431.118956,296718431.118956,3.4234118220369307,3.4234118220369307,37245271.555150576,37245271.555150576,912501034.309366,912501034.309366
1.79,27.428571428571423,27.428571428571423,5.594139194139206,5.594139194139206,16.50866910866916,16.50866910866916,280060361.18824434,280060361.18824434,3.425179986117361,3.425179986117361,37244929.918526486,37244929.918526486,912822762.0096343,912822762.0096343
1.8,19.926739926739927,19.926739926739927,2.8109890109890237,2.8109890109890237,23.900610500610554,23.900610500610554,263232474.4011672,263232474.4011672,3.4270158317151203,3.4270158317151203,37244580.58675378,37244580.58675378,913143364.094191,913143364.094191
1.81,21.8021978021978,21.8021978021978,3.962637362637375,3.962637362637375,18.47985347985353,18.47985347985353,246243477.7684099,246243477.7684099,3.428918323820844,3.428918323820844,37244223.93624291,37244223.93624291,913462626.7613447,913462626.7613447
1.82,16.926007326007323,16.926007326007323,7.513553113553125,7.513553113553125,30.79975579975585,30.79975579975585,229102176.7740644,229102176.7740644,3.4308863762140676,3.4308863762140676,37243860.34473284,37243860.34473284,913780337.0530149,913780337.0530149
1.83,16.550915750915745,16.550915750915745,10.200732600732612,10.200732600732612,25.378998778998834,25.378998778998834,211817470.13022104,211817470.13022104,3.432918852210831,3.432918852210831,37243490.190970704,37243490.190970704,914096283.0105039,914096283.0105039
1.84,15.425641025641024,15.425641025641024,9.241025641025654,9.241025641025654,24.88620268620274,24.88620268620274,194398344.4675006,194398344.4675006,3.4350145654526307,3.4350145654526307,37243113.854393534,37243113.854393534,914410253.8299211,914410253.8299211
1.85,10.36190476190476,10.36190476190476,11.640293040293054,11.640293040293054,26.364590964591013,26.364590964591013,176853868.96487406,176853868.96487406,3.437172280736153,3.437172280736153,37242731.71481313,37242731.71481313,914722040.0171541,914722040.0171541
1.86,15.706959706959706,15.706959706959706,5.690109890109903,5.690109890109903,17.49426129426135,17.49426129426135,159193189.92217028,159193189.92217028,3.4393907148831095,3.4393907148831095,37242344.15210326,37242344.15210326,915031433.5422608,915031433.5422608
1.87,13.175091575091573,13.175091575091573,3.770695970695983,3.770695970695983,28.828571428571482,28.828571428571482,141425525.27869993,141425525.27869993,3.441668537649573,3.441668537649573,37241951.54589035,37241951.54589035,915338227.9931861,915338227.9931861
1.88,6.704761904761905,6.704761904761905,-0.4520146520146397,-0.4520146520146397,13.059096459096512,13.059096459096512,123560159.08147553,123560159.08147553,3.444004372674089,3.444004372674089,37241554.27524733,37241554.27524733,915642218.7286738,915642218.7286738
1.89,13.643956043956043,13.643956043956043,-4.386813186813175,-4.386813186813175,20.943833943833997,20.943833943833997,105606435.90652964,105606435.90652964,3.4463967984638453,3.4463967984638453,37241152.71839099,37241152.71839099,915943203.0302746,915943203.0302746
1.9,12.518681318681319,12.518681318681319,-4.0029304029303905,-4.0029304029303905,16.50866910866916,16.50866910866916,87573755.2368798,87573755.2368798,3.4488443494181413,3.4488443494181413,37240747.25238315,37240747.25238315,916240980.2533336,916240980.2533336
1.91,13.08131868131868,13.08131868131868,-1.9875457875457754,-1.9875457875457754,23.900610500610554,23.900610500610554,69471565.80070847,69471565.80070847,3.451345516888379,3.451345516888379,37240338.25283596,37240338.25283596,916535351.976843,916535351.976843
1.92,11.112087912087912,11.112087912087912,-0.6439560439560317,-0.6439560439560317,19.46544566544572,19.46544566544572,51309359.87336442,51309359.87336442,3.4538987502737335,3.4538987502737335,37239926.09362106,37239926.09362106,916826122.1520531,916826122.1520531
1.93,17.01978021978022,17.01978021978022,-4.098901098901087,-4.098901098901087,21.436630036630092,21.436630036630092,33096667.54681223,33096667.54681223,3.456502458151693,3.456502458151693,37239511.146583445,37239511.146583445,917113097.2497336,917113097.2497336
1.94,11.956043956043956,11.956043956043956,-2.9472527472527346,-2.9472527472527346,16.50866910866916,16.50866910866916,14843050.970183361,14843050.970183361,3.459155009442541,3.459155009442541,37239093.781259686,37239093.781259686,917396086.4059612,917396086.4059612
1.95,11.768498168498168,11.768498168498168,-2.0835164835164717,-2.0835164835164717,20.943833943833997,20.943833943833997,-3441901.4348973087,-3441901.4348973087,3.4618547346069173,3.4618547346069173,37238674.36460102,37238674.36460102,917674901.5663446,917674901.5663446
1.96,2.391208791208791,2.391208791208791,-1.9875457875457754,-1.9875457875457754,25.871794871794926,25.871794871794926,-21748580.780514624,-21748580.780514624,3.464599926875486,3.464599926875486,37238253.26070162,37238253.26070162,917949357.6285651,917949357.6285651
1.97,10.174358974358972,10.174358974358972,-2.275457875457863,-2.275457875457863,20.451037851037903,20.451037851037903,-40067363.536486976,-40067363.536486976,3.4673888435097915,3.4673888435097915,37237830.830531485,37237830.830531485,918219272.583122,918219272.583122
1.98,6.610989010989011,6.610989010989011,-2.7553113553113433,-2.7553113553113433,21.929426129426183,21.929426129426183,-58388617.36848595,-58388617.36848595,3.4702197070932614,3.4702197070932614,37237407.43167517,37237407.43167517,918484467.652195,918484467.652195
1.99,10.924542124542125,10.924542124542125,-4.0029304029303905,-4.0029304029303905,21.436630036630092,21.436630036630092,-76702706.9865144,-76702706.9865144,3.4730907068513837,3.4730907068513837,37236983.4180759,37236983.4180759,918744767.4264911,918744767.4264911
2.0,4.4542124542124535,4.4542124542124535,-6.690109890109878,-6.690109890109878,23.407814407814463,23.407814407814463,-95000000.00000006,-95000000.00000006,3.476,3.476,37236559.13978493,37236559.13978493,918999999.9999996,918999999.9999996
2.01,-2.672527472527473,-2.672527472527473,-8.129670329670319,-8.129670329670319,20.451037851037903,20.451037851037903,-113270872.77574864,-113270872.77574864,3.47894571312065,3.47894571312065,37236134.94271747,37236134.94271747,919249997.1025289,919249997.1025289
2.02,-0.7970695970695972,-0.7970695970695972,-5.826373626373614,-5.826373626373614,18.972649572649622,18.972649572649622,-131505716.29500362,-131505716.29500362,3.481925943561907,3.481925943561907,37235711.168413825,37235711.168413825,919494594.2299354,919494594.2299354
2.03,-4.079120879120879,-4.079120879120879,-3.715018315018303,-3.715018315018303,22.91501831501837,22.91501831501837,-149694942.00585142,-149694942.00585142,3.4849387608655253,3.4849387608655253,37235288.15380706,37235288.15380706,919733630.7719432,919733630.7719432
2.04,-1.5472527472527475,-1.5472527472527475,-6.3062271062270945,-6.3062271062270945,22.91501831501837,22.91501831501837,-167828987.66721603,-167828987.66721603,3.48798220821638,3.48798220821638,37234866.230996996,37234866.230996996,919966950.1374515,919966950.1374515
2.05,-5.204395604395605,-5.204395604395605,-4.194871794871783,-4.194871794871783,17.00146520146525,17.00146520146525,-185898323.18068734,-185898323.18068734,3.4910543039149387,3.4910543039149387,37234445.727030165,37234445.727030165,920194399.8772305,920194399.8772305
2.06,-2.578754578754579,-2.578754578754579,-8.705494505494494,-8.705494505494494,18.47985347985353,18.47985347985353,-203893456.40643653,-203893456.40643653,3.494153042871164,3.494153042871164,37234026.96368672,37234026.96368672,920415831.8039207,920415831.8039207
2.07,-1.8285714285714285,-1.8285714285714285,-9.089377289377278,-9.089377289377278,14.537484737484789,14.537484737484789,-221804938.95947492,-221804938.95947492,3.4972763981186263,3.4972763981186263,37233610.25727379,37233610.25727379,920631102.109226,920631102.109226
2.08,6.048351648351648,6.048351648351648,-12.448351648351636,-12.448351648351636,15.523076923076975,15.523076923076975,-239623371.98252928,-239623371.98252928,3.5004223223476374,3.5004223223476374,37233195.91842538,37233195.91842538,920840071.4782176,920840071.4782176
2.09,-5.86080586080586,-5.86080586080586,-14.655677655677643,-14.655677655677643,11.087912087912141,11.087912087912141,-257339411.8918153,-257339411.8918153,3.5035887494561813,3.5035887494561813,37232784.251909696,37232784.251909696,921042605.2006586,921042605.2006586
2.1,-5.485714285714286,-5.485714285714286,-18.014652014652004,-18.014652014652004,-35.72771672771667,-35.72771672771667,-274943776.0920092,-274943776.0920092,3.506773596117368,3.506773596117368,37232375.556442544,37232375.556442544,921238573.2792534,921238573.2792534
2.11,-7.173626373626373,-7.173626373626373,-14.75164835164834,-14.75164835164834,-47.554822954822896,-47.554822954822896,-292427248.65673375,-292427248.65673375,3.509974763362225,3.509974763362225,37231970.12450876,37231970.12450876,921427850.5347377,921427850.5347377
2.12,3.7040293040293037,3.7040293040293037,-15.135531135531124,-15.135531135531124,-78.10818070818065,-78.10818070818065,-309780685.97089744,-309780685.97089744,3.5131901381764923,3.5131901381764923,37231568.242189825,37231568.242189825,921610316.7077329,921610316.7077329
2.13,-2.2974358974358973,-2.2974358974358973,-12.064468864468854,-12.064468864468854,-105.70476190476185,-105.70476190476185,-326995022.33124626,-326995022.33124626,3.5164175951101795,3.5164175951101795,37231170.18899958,37231170.18899958,921785856.5572628,921785856.5572628
2.14,-6.704761904761905,-6.704761904761905,-13.599999999999989,-13.599999999999989,-116.05347985347981,-116.05347985347981,-344061275.50151616,-344061275.50151616,3.5196549978985856,3.5196549978985856,37230776.23772626,37230776.23772626,921954359.9558729,921954359.9558729
2.15,-2.2974358974358973,-2.2974358974358973,-19.742124542124532,-19.742124542124532,-129.8517704517704,-129.8517704517704,-360970552.2185971,-360970552.2185971,3.5229002010934733,3.5229002010934733,37230386.65428289,37230386.65428289,922115721.9812579,922115721.9812579
2.16,-5.86080586080586,-5.86080586080586,-18.590476190476178,-18.590476190476178,-136.7509157509157,-136.7509157509157,-377714053.6461575,-377714053.6461575,3.526151051703103,3.526151051703103,37230001.69756423,37230001.69756423,922269843.0043317,922269843.0043317
2.17,-2.2974358974358973,-2.2974358974358973,-16.287179487179476,-16.287179487179476,-124.43101343101337,-124.43101343101337,-394283080.7722002,-394283080.7722002,3.5294053908397856,3.5294053908397856,37229621.61931156,37229621.61931156,922416628.7736577,922416628.7736577
2.18,4.266666666666667,4.266666666666667,-19.26227106227105,-19.26227106227105,-129.8517704517704,-129.8517704517704,-410669039.747068,-410669039.747068,3.532661055373641,3.532661055373641,37229246.66398516,37229246.66398516,922555990.4961765,922555990.4961765
2.19,6.517216117216117,6.517216117216117,-17.630769230769218,-17.630769230769218,-112.11111111111104,-112.11111111111104,-426863447.1584418,-426863447.1584418,3.535915879591236,3.535915879591236,37228877.06864372,37228877.06864372,922687844.9141542,922687844.9141542
2.2,3.7040293040293037,3.7040293040293037,-17.054945054945044,-17.054945054945044,-104.22637362637356,-104.22637362637356,-442857935.23992425,-442857935.23992425,3.539167696857758,3.539167696857758,37228513.06283194,37228513.06283194,922812114.3782873,922812114.3782873
2.21,4.172893772893772,4.172893772893772,-9.569230769230757,-9.569230769230757,-97.82002442002437,-97.82002442002437,-458644257.0098371,-458644257.0098371,3.5424143412813645,3.5424143412813645,37228154.86847534,37228154.86847534,922928726.9169056,922928726.9169056
2.22,3.6102564102564094,3.6102564102564094,-8.513553113553101,-8.513553113553101,-85.00732600732596,-85.00732600732596,-474214291.336907,-474214291.336907,3.5456536493784028,3.5456536493784028,37227802.69978289,37227802.69978289,923037616.301206,923037616.301206
2.23,2.953846153846153,2.953846153846153,-8.225641025641014,-8.225641025641014,-78.60097680097675,-78.60097680097675,-489560047.92956233,-489560047.92956233,3.548883461738118,3.548883461738118,37227456.76315705,37227456.76315705,923138722.106458,923138722.106458
2.24,1.7347985347985344,1.7347985347985344,-8.033699633699621,-8.033699633699621,-71.20903540903537,-71.20903540903537,-504673672.24560595,-504673672.24560595,3.552101624685531,3.552101624685531,37227117.257111594,37227117.257111594,923231989.7691296,923231989.7691296
2.25,1.3597069597069595,1.3597069597069595,-3.139194139194127,-3.139194139194127,-74.16581196581191,-74.16581196581191,-519547450.3190885,-519547450.3190885,3.555305991941111,3.555305991941111,37226784.37219703,37226784.37219703,923317370.6398818,923317370.6398818
2.26,-1.9223443223443226,-1.9223443223443226,-10.720879120879108,-10.720879120879108,-68.7450549450549,-68.7450549450549,-534173813.50125176,-534173813.50125176,3.558494426275939,3.558494426275939,37226458.29093362,37226458.29093362,923394822.0323739,923394822.0323739
2.27,-5.485714285714286,-5.485714285714286,-8.705494505494494,-8.705494505494494,-60.86031746031741,-60.86031746031741,-548545343.1124696,-548545343.1124696,3.561664801160971,3.561664801160971,37226139.18775183,37226139.18775183,923464307.2678392,923464307.2678392
2.28,-3.61025641025641,-3.61025641025641,-2.659340659340647,-2.659340659340647,-60.86031746031741,-60.86031746031741,-562654775.002171,-562654775.002171,3.5648150024091088,3.5648150024091088,37225827.22894072,37225827.22894072,923525795.715388,923525795.715388
2.29,-4.923076923076923,-4.923076923076923,-10.24102564102563,-10.24102564102563,-39.17728937728933,-39.17728937728933,-576495004.0137885,-576495004.0137885,3.5679429298087197,3.5679429298087197,37225522.57260348,37225522.57260348,923579262.827988,923579262.827988
2.3,20.583150183150185,20.583150183150185,-15.615384615384604,-15.615384615384604,-50.01880341880337,-50.01880341880337,-590059088.3518344,-590059088.3518344,3.5710464987472808,3.5710464987472808,37225225.36862073,37225225.36862073,923624690.1740979,923624690.1740979
2.31,-26.584615384615386,-26.584615384615386,2.5230769230769354,2.5230769230769354,-40.1628815628815,-40.1628815628815,-603340253.8482722,-603340253.8482722,3.5741236418238445,3.5741236418238445,37224935.75862099,37224935.75862099,923662065.4649042,923662065.4649042
2.32,-21.23956043956044,-21.23956043956044,-1.4117216117215996,-1.4117216117215996,-56.91794871794867,-56.91794871794867,-616331898.1254141,-616331898.1254141,3.5771723104489905,3.5771723104489905,37224653.87595924,37224653.87595924,923691382.5771391,923691382.5771391
2.33,-43.651282051282045,-43.651282051282045,-14.94358974358973,-14.94358974358973,-57.90354090354086,-57.90354090354086,-629027594.6526392,-629027594.6526392,3.5801904764309826,3.5801904764309826,37224379.84570186,37224379.84570186,923712641.5714504,923712641.5714504
2.34,-25.74065934065934,-25.74065934065934,-12.352380952380939,-12.352380952380939,-78.10818070818065,-78.10818070818065,-641421096.6943043,-641421096.6943043,3.583176133546829,3.583176133546829,37224113.78461974,37224113.78461974,923725848.7062898,923725848.7062898
2.35,-58.93626373626373,-58.93626373626373,-13.504029304029292,-13.504029304029292,-71.70183150183144,-71.70183150183144,-653506341.1462742,-653506341.1462742,3.5861272990969706,3.5861272990969706,37223855.80118793,37223855.80118793,923731016.4473096,923731016.4473096
2.36,-65.4065934065934,-65.4065934065934,-13.408058608058594,-13.408058608058594,-76.62979242979239,-76.62979242979239,-665277452.2585863,-665277452.2585863,3.58904201544233,3.58904201544233,37223605.99559314,37223605.99559314,923728163.4722354,923728163.4722354
2.37,-67.84468864468865,-67.84468864468865,-15.903296703296691,-15.903296703296691,-67.7594627594627,-67.7594627594627,-676728745.2418244,-676728745.2418244,3.5919183515224513,3.5919183515224513,37223364.45974791,37223364.45974791,923717314.6712087,923717314.6712087
2.38,-58.092307692307685,-58.092307692307685,-18.398534798534786,-18.398534798534786,-78.60097680097675,-78.60097680097675,-687854729.7548604,-687854729.7548604,3.59475440435353,3.59475440435353,37223131.27731162,37223131.27731162,923698501.1425843,923698501.1425843
2.39,-41.68205128205128,-41.68205128205128,-20.70183150183149,-20.70183150183149,-69.23785103785097,-69.23785103785097,-698650113.271693,-698650113.271693,3.597548300505072,3.597548300505072,37222906.52371881,37222906.52371881,923671760.1841698,923671760.1841698
2.4,-68.5010989010989,-68.5010989010989,-12.256410256410243,-12.256410256410243,-59.87472527472522,-59.87472527472522,-709109804.3251956,-709109804.3251956,3.600298197553978,3.600298197553978,37222690.266214244,37222690.266214244,923637135.2799047,923637135.2799047
2.41,-58.56117216117216,-58.56117216117216,-17.726739926739917,-17.726739926739917,-43.11965811965806,-43.11965811965806,-719228915.625659,-719228915.625659,3.6030022855149118,3.6030022855149118,37222482.56389441,37222482.56389441,923594676.0819739,923594676.0819739
2.42,-73.75238095238093,-73.75238095238093,-18.782417582417573,-18.782417582417573,-46.56923076923072,-46.56923076923072,-729002767.0521023,-729002767.0521023,3.6056587882457056,3.6056587882457056,37222283.4677559,37222283.4677559,923544438.3883619,923544438.3883619
2.43,-47.87106227106227,-47.87106227106227,-22.717216117216108,-22.717216117216108,-23.900610500610448,-23.900610500610448,-738426888.514401,-738426888.514401,3.6082659648267215,3.6082659648267215,37222093.0207503,37222093.0207503,923486484.1158401,923486484.1158401
2.44,-55.18534798534798,-55.18534798534798,-4.866666666666654,-4.866666666666654,-20.4510378510378,-20.4510378510378,-747497022.6843679,-747497022.6843679,3.610822110912996,3.610822110912996,37221911.25784526,37221911.25784526,923420881.2684104,923420881.2684104
2.45,-50.215384615384615,-50.215384615384615,-19.07032967032966,-19.07032967032966,-8.13113553113548,-8.13113553113548,-756209127.5940073,-756209127.5940073,3.6133255600580823,3.6133255600580823,37221738.20609207,37221738.20609207,923347703.9012,923347703.9012
2.46,-45.43296703296703,-45.43296703296703,-10.816849816849805,-10.816849816849805,6.6527472527473055,6.6527472527473055,-764559379.0992497,-764559379.0992497,3.615774685008492,3.615774685008492,37221573.88469918,37221573.88469918,923267032.0798327,923267032.0798327
2.47,-38.212454212454205,-38.212454212454205,-9.569230769230757,-9.569230769230757,30.306959706959756,30.306959706959756,-772544173.2075527,-772544173.2075527,3.6181678989676866,3.6181678989676866,37221418.30511203,37221418.30511203,923178951.8352877,923178951.8352877
2.48,-34.36776556776557,-34.36776556776557,-3.715018315018303,-3.715018315018303,34.7421245421246,34.7421245421246,-780160128.2678573,-780160128.2678573,3.6205036568285576,3.6205036568285576,37221271.47109825,37221271.47109825,923083555.1142725,923083555.1142725
2.49,-23.583882783882785,-23.583882783882785,-10.43296703296702,-10.43296703296702,39.670085470085525,39.670085470085525,-787404087.0214624,-787404087.0214624,3.6227804563734174,3.6227804563734174,37221133.37883938,37221133.37883938,922980939.7251272,922980939.7251272
2.5,-10.174358974358972,-10.174358974358972,-6.402197802197789,-6.402197802197789,59.87472527472532,59.87472527472532,-794273118.5124791,-794273118.5124791,3.6249968394404837,3.6249968394404837,37221004.01702726,37221004.01702726,922871209.2792913,922871209.2792913
2.51,-21.427106227106222,-21.427106227106222,-6.210256410256397,-6.210256410256397,69.73064713064717,69.73064713064717,-800764519.8566123,-800764519.8566123,3.627151393055905,3.627151393055905,37220883.36696682,37220883.36696682,922754473.1283659,922754473.1283659
2.52,-17.582417582417584,-17.582417582417584,-13.695970695970685,-13.695970695970685,81.55775335775341,81.55775335775341,-806875817.8671156,-806875817.8671156,3.629242750530419,3.629242750530419,37220771.402683504,37220771.402683504,922630846.2968042,922630846.2968042
2.53,-10.174358974358972,-10.174358974358972,-12.448351648351636,-12.448351648351636,92.89206349206356,92.89206349206356,-812604770.536847,-812604770.536847,3.631269592519692,3.631269592519692,37220668.09103611,37220668.09103611,922500449.4102583,922500449.4102583
2.54,-15.800732600732601,-15.800732600732601,-9.28131868131867,-9.28131868131867,89.935286935287,89.935286935287,-817949368.3754566,-817949368.3754566,3.63323064804752,3.63323064804752,37220573.39183478,37220573.39183478,922363408.6196432,922363408.6196432
2.55,-11.487179487179487,-11.487179487179487,-4.48278388278387,-4.48278388278387,101.76239316239322,101.76239316239322,-822907835.6008233,-822907835.6008233,3.6351246954909975,3.6351246954909975,37220487.257963635,37220487.257963635,922219855.5209427,922219855.5209427
2.56,-3.422710622710623,-3.422710622710623,-10.816849816849805,-10.816849816849805,119.50305250305254,119.50305250305254,-827478631.1839561,-827478631.1839561,3.6369505635268853,3.6369505635268853,37220409.63550798,37220409.63550798,922069927.0708125,922069927.0708125
2.57,7.454945054945055,7.454945054945055,-6.018315018315006,-6.018315018315006,119.99584859584866,119.99584859584866,-831660449.7466707,-831660449.7466707,3.6387071320383484,3.6387071320383484,37220340.46388661,37220340.46388661,921913765.4980347,921913765.4980347
2.58,-33.99267399267399,-33.99267399267399,-11.39267399267398,-11.39267399267398,122.9526251526252,122.9526251526252,-835452222.3114398,-835452222.3114398,3.640393332981365,3.640393332981365,37220279.67598768,37220279.67598768,921751518.2108684,921751518.2108684
2.59,-12.706227106227105,-12.706227106227105,-13.887912087912074,-13.887912087912074,108.16874236874241,108.16874236874241,-838853116.9029241,-838853116.9029241,3.6420081512100215,3.6420081512100215,37220227.19830957,37220227.19830957,921583337.7003586,921583337.7003586
2.6,-17.957509157509158,-17.957509157509158,-16.287179487179476,-16.287179487179476,128.86617826617834,128.86617826617834,-841862539.0007726,-841862539.0007726,3.64355062526009,3.64355062526009,37220182.95110505,37220182.95110505,921409381.4396665,921409381.4396665
2.61,-20.676923076923078,-20.676923076923078,-10.624908424908414,-10.624908424908414,136.75091575091582,136.75091575091582,-844480131.843386,-844480131.843386,3.6450198480901723,3.6450198480901723,37220146.84852981,37220146.84852981,921229811.7794778,921229811.7794778
2.62,-18.801465201465202,-18.801465201465202,-11.008791208791196,-11.008791208791196,141.18608058608064,141.18608058608064,-846705776.582434,-846705776.582434,3.646414967779824,3.646414967779824,37220118.79879452,37220118.79879452,921044795.8395551,921044795.8395551
2.63,-15.894505494505493,-15.894505494505493,-6.114285714285702,-6.114285714285702,139.21489621489627,139.21489621489627,-848539592.2880006,-848539592.2880006,3.6477351881840536,3.6477351881840536,37220098.7043201,37220098.7043201,920854505.3965107,920854505.3965107
2.64,-33.805128205128206,-33.805128205128206,-4.674725274725262,-4.674725274725262,158.92673992674,158.92673992674,-849981935.8043525,-849981935.8043525,3.6489797695436974,3.6489797695436974,37220086.461896956,37220086.461896956,920659116.7678664,920659116.7678664
2.65,-49.37142857142857,-49.37142857142857,-9.185347985347972,-9.185347985347972,136.2581196581197,136.2581196581197,-851033401.4563904,-851033401.4563904,3.6501480290510977,3.6501480290510977,37220081.96284661,37220081.96284661,920458810.6924741,920458810.6924741
2.66,-49.74652014652014,-49.74652014652014,-1.2197802197802075,-1.2197802197802075,148.57802197802204,148.57802197802204,-851694820.6069691,-851694820.6069691,3.6512393413706676,3.6512393413706676,37220085.093186684,37220085.093186684,920253772.2073778,920253772.2073778
2.67,-55.091575091575095,-55.091575091575095,0.411721611721624,0.411721611721624,144.6356532356533,144.6356532356533,-851967261.0653495,-851967261.0653495,3.6522531391138515,3.6522531391138515,37220095.733798884,37220095.733798884,920044190.5211995,920044190.5211995
2.68,-53.77875457875457,-53.77875457875457,4.3465201465201595,4.3465201465201595,141.67887667887675,141.67887667887675,-851852026.3471471,-851852026.3471471,3.6531889132681323,3.6531889132681323,37220113.76059898,37220113.76059898,919830258.8841273,919830258.8841273
2.69,-51.24688644688644,-51.24688644688644,-0.5479853479853357,-0.5479853479853357,137.2437118437119,137.2437118437119,-851350654.7862383,-851350654.7862383,3.6540462135796874,3.6540462135796874,37220139.044709705,37220139.044709705,919612174.4545954,919612174.4545954
2.7,-45.62051282051282,-45.62051282051282,1.1794871794871917,1.1794871794871917,162.37631257631264,162.37631257631264,-850464918.4991854,-850464918.4991854,3.6548246488893645,3.6548246488893645,37220171.45263553,37220171.45263553,919390138.1627469,919390138.1627469
2.71,-32.39853479853479,-32.39853479853479,-3.043223443223431,-3.043223443223431,149.07081807081812,149.07081807081812,-849196822.2028216,-849196822.2028216,3.6555238874217295,3.6555238874217295,37220210.846439935,37220210.846439935,919164354.5707623,919164354.5707623
2.72,-25.08424908424908,-25.08424908424908,-2.9472527472527346,-2.9472527472527346,165.33308913308917,165.33308913308917,-847548601.8857495,-847548601.8857495,3.656143657026897,3.656143657026897,37220257.083923884,37220257.083923884,918935031.7301601,918935031.7301601
2.73,-22.833699633699634,-22.833699633699634,-5.058608058608046,-5.058608058608046,164.347496947497,164.347496947497,-845522723.3345908,-845522723.3345908,3.6566837453749352,3.6566837453749352,37220310.01880663,37220310.01880663,918702381.0361565,918702381.0361565
2.74,-0.046886446886447046,-0.046886446886447046,-3.139194139194127,-3.139194139194127,191.4512820512821,191.4512820512821,-843121880.5159167,-843121880.5159167,3.6571440001027145,3.6571440001027145,37220369.500907555,37220369.500907555,918466617.0791847,918466617.0791847
2.75,9.142857142857142,9.142857142857142,-2.7553113553113433,-2.7553113553113433,201.80000000000004,201.80000000000004,-840348993.8148907,-840348993.8148907,3.6575243289130013,3.6575243289130013,37220435.37632947,37220435.37632947,918227957.4936771,918227957.4936771
2.76,17.394871794871793,17.394871794871793,-1.4117216117215996,-1.4117216117215996,192.9296703296704,192.9296703296704,-837207208.1317345,-837207208.1317345,3.6578246996257677,3.6578246996257677,37220507.4876431,37220507.4876431,917986622.8042183,917986622.8042183
2.77,24.24029304029304,24.24029304029304,-6.210256410256397,-6.210256410256397,201.30720390720396,201.30720390720396,-833699890.8372328,-833699890.8372328,3.6580451401816134,3.6580451401816134,37220585.67407235,37220585.67407235,917742836.2691619,917742836.2691619
2.78,32.586080586080584,32.586080586080584,-10.816849816849805,-10.816849816849805,207.22075702075708,207.22075702075708,-829830629.588576,-829830629.588576,3.6581857385973042,3.6581857385973042,37220669.77168057,37220669.77168057,917496823.72183,917496823.72183
2.79,34.836630036630034,34.836630036630034,-15.135531135531124,-15.135531135531124,190.4656898656899,190.4656898656899,-825603230.00692,-825603230.00692,3.6582466428734555,3.6582466428734555,37220759.613557026,37220759.613557026,917248813.4094058,917248813.4094058
2.8,43.93260073260073,43.93260073260073,-4.96263736263735,-4.96263736263735,211.65592185592192,211.65592185592192,-821021713.2181594,-821021713.2181594,3.6582280608544013,3.6582280608544013,37220855.030004226,37220855.030004226,916999035.8296219,916999035.8296219
2.81,47.02710622710622,47.02710622710622,-4.0029304029303905,-4.0029304029303905,209.68473748473755,209.68473748473755,-816090313.258463,-816090313.258463,3.658130260040376,3.658130260040376,37220955.84872494,37220955.84872494,916747723.5653661,916747723.5653661
2.82,46.183150183150175,46.183150183150175,11.25641025641027,11.25641025641027,222.49743589743596,222.49743589743596,-810813474.3462335,-810813474.3462335,3.657953567352116,3.657953567352116,37221061.895009786,37221061.895009786,916495111.1173186,916495111.1173186
2.83,40.838095238095235,40.838095238095235,-0.5479853479853357,-0.5479853479853357,217.569474969475,217.569474969475,-805195848.0222245,-805195848.0222245,3.6576983688481155,3.6576983688481155,37221172.99192428,37221172.99192428,916241434.7347368,916241434.7347368
2.84,45.8080586080586,45.8080586080586,0.7956043956044079,0.7956043956044079,224.4686202686203,224.4686202686203,-799242290.159644,-799242290.159644,3.6573651093946506,3.6573651093946506,37221288.960495874,37221288.960495874,915986932.2445078,915986932.2445078
2.85,45.52673992673993,45.52673992673993,-2.0835164835164717,-2.0835164835164717,206.727960927961,206.727960927961,-792957857.8461388,-792957857.8461388,3.6569542922889755,3.6569542922889755,37221409.619900115,37221409.619900115,915731842.8785875,915731842.8785875
2.86,17.11355311355311,17.11355311355311,0.50769230769232,0.50769230769232,215.10549450549453,215.10549450549453,-786347806.139659,-786347806.139659,3.6564664788358385,3.6564664788358385,37221534.78764675,37221534.78764675,915476407.0999511,915476407.0999511
2.87,-2.578754578754579,-2.578754578754579,0.891575091575104,0.891575091575104,195.88644688644695,195.88644688644695,-779417584.700264,-779417584.700264,3.655902287877744,3.655902287877744,37221664.2797644,37221664.2797644,915220866.4271786,915220866.4271786
2.88,-11.112087912087912,-11.112087912087912,2.8109890109890237,2.8109890109890237,209.68473748473755,209.68473748473755,-772172834.3000153,-772172834.3000153,3.6552623952792946,3.6552623952792946,37221797.91098472,37221797.91098472,914965463.2577943,914965463.2577943
2.89,-25.459340659340658,-25.459340659340658,-0.4520146520146397,-0.4520146520146397,206.23516483516488,206.23516483516488,-764619383.21319,-764619383.21319,3.6545475333660287,3.6545475333660287,37221935.49492512,37221935.49492512,914710440.6904951,914710440.6904951
2.9,-40.46300366300366,-40.46300366300366,0.9875457875457997,0.9875457875457997,212.64151404151409,212.64151404151409,-756763243.4891053,-756763243.4891053,3.653758490318198,3.653758490318198,37222076.8442704,37222076.8442704,914456042.3463882,914456042.3463882
2.91,-45.33919413919414,-45.33919413919414,-2.275457875457863,-2.275457875457863,184.05934065934073,184.05934065934073,-748610607.109938,-748610607.109938,3.652896109519968,3.652896109519968,37222221.77095268,37222221.77095268,914202512.1893727,914202512.1893727
2.92,-38.68131868131868,-38.68131868131868,-1.7956043956043835,-1.7956043956043835,188.98730158730166,188.98730158730166,-740167842.0359849,-740167842.0359849,3.6519612888645447,3.6519612888645447,37222370.08633018,37222370.08633018,913950094.3457816,913950094.3457816
2.93,-35.96190476190476,-35.96190476190476,1.5633699633699754,1.5633699633699754,185.0449328449329,185.0449328449329,-731441488.1408843,-731441488.1408843,3.6509549800158148,3.6509549800158148,37222521.60136345,37222521.60136345,913699032.9234337,913699032.9234337
2.94,-28.27252747252747,-28.27252747252747,-3.810989010988999,-3.810989010988999,182.58095238095245,182.58095238095245,-722438253.0393914,-722438253.0393914,3.6498781876270474,3.6498781876270474,37222676.12679072,37222676.12679072,913449571.8302081,913449571.8302081
2.95,-4.4542124542124535,-4.4542124542124535,-3.331135531135519,-3.331135531135519,175.68180708180714,175.68180708180714,-713165007.810364,-713165007.810364,3.6487319685173283,3.6487319685173283,37222833.473300256,37222833.473300256,913201954.5922831,913201954.5922831
2.96,11.393406593406594,11.393406593406594,-6.018315018315006,-6.018315018315006,189.48009768009774,189.48009768009774,-703628782.6176862,-703628782.6176862,3.6475174308063356,3.6475174308063356,37222993.45170111,37222993.45170111,912956424.1721702,912956424.1721702
2.97,26.021978021978022,26.021978021978022,-4.866666666666654,-4.866666666666654,190.4656898656899,190.4656898656899,-693836762.231917,-693836762.231917,3.6462357330082056,3.6462357330082056,37223155.87309149,37223155.87309149,912713222.7866681,912713222.7866681
2.98,42.244688644688644,42.244688644688644,-2.3714285714285595,-2.3714285714285595,190.95848595848602,190.95848595848602,-683796281.4555199,-683796281.4555199,3.644888083085146,3.644888083085146,37223320.54902411,37223320.54902411,912472591.7248826,912472591.7248826
2.99,44.68278388278387,44.68278388278387,-1.3157509157509035,-1.3157509157509035,172.23223443223446,172.23223443223446,-673514820.4545811,-673514820.4545811,3.643475737461648,3.643475737461648,37223487.29166999,37223487.29166999,912234771.1664361,912234771.1664361
3.0,53.122344322344325,53.122344322344325,-5.058608058608046,-5.058608058608046,172.23223443223446,172.23223443223446,-663000000.0000001,-663000000.0000001,3.641999999999998,3.641999999999998,37223655.913978465,37223655.913978465,911999999.9999995,911999999.9999995
3.01,58.84249084249083,58.84249084249083,-6.594139194139181,-6.594139194139181,176.17460317460325,176.17460317460325,-652259576.6211646,-652259576.6211646,3.640462220937977,3.640462220937977,37223826.229835175,37223826.229835175,911768515.6422883,911768515.6422883
3.02,63.71868131868131,63.71868131868131,-11.008791208791196,-11.008791208791196,165.8258852258853,165.8258852258853,-641301437.675214,-641301437.675214,3.6388637957895655,3.6388637957895655,37223998.05421645,37223998.05421645,911540553.8576459,911540553.8576459
3.03,63.9062271062271,63.9062271062271,-10.720879120879108,-10.720879120879108,155.47716727716733,155.47716727716733,-630133596.3350137,-630133596.3350137,3.637206164209563,3.637206164209563,37224171.20334129,37224171.20334129,911316348.5783557,911316348.5783557
3.04,63.9062271062271,63.9062271062271,-3.043223443223431,-3.043223443223431,157.44835164835172,157.44835164835172,-618764186.4990367,-618764186.4990367,3.6354908088230276,3.6354908088230276,37224345.494819574,37224345.494819574,911096131.7258093,911096131.7258093
3.05,61.65567765567766,61.65567765567766,-2.659340659340647,-2.659340659340647,156.4627594627595,156.4627594627595,-607201457.6263852,-607201457.6263852,3.6337192540204697,3.6337192540204697,37224520.747797474,37224520.747797474,910880133.0326695,910880133.0326695
3.06,58.93626373626373,58.93626373626373,-1.7956043956043835,-1.7956043956043835,163.3619047619048,163.3619047619048,-595453769.5002437,-595453769.5002437,3.6318930647197893,3.6318930647197893,37224696.783099025,37224696.783099025,910668579.866151,910668579.866151
3.07,54.153846153846146,54.153846153846146,3.962637362637375,3.962637362637375,149.5636141636142,149.5636141636142,-583529586.9230804,-583529586.9230804,3.6300138450959336,3.6300138450959336,37224873.42336474,37224873.42336474,910461697.052562,910461697.052562
3.08,52.93479853479853,52.93479853479853,-1.7956043956043835,-1.7956043956043835,149.07081807081812,149.07081807081812,-571437474.3469814,-571437474.3469814,3.628083237279341,3.628083237279341,37225050.4931861,37225050.4931861,910259706.7032285,910259706.7032285
3.09,44.4014652014652,44.4014652014652,-5.1545787545787425,-5.1545787545787425,146.60683760683767,146.60683760683767,-559186090.4425174,-559186090.4425174,3.6261029200241617,3.6261029200241617,37225227.81923695,37225227.81923695,910062828.0419348,910062828.0419348
3.1,29.304029304029303,29.304029304029303,-3.715018315018303,-3.715018315018303,140.69328449328455,140.69328449328455,-546784182.609601,-546784182.609601,3.6240746073473806,3.6240746073473806,37225405.2304007,37225405.2304007,909871277.234018,909871277.234018
3.11,7.079853479853479,7.079853479853479,-1.2197802197802075,-1.2197802197802075,140.69328449328455,140.69328449328455,-534240581.4338142,-534240581.4338142,3.6220000471399167,3.6220000471399167,37225582.557894036,37225582.557894036,909685267.2172235,909685267.2172235
3.12,-21.614652014652012,-21.614652014652012,1.3714285714285837,1.3714285714285837,128.86617826617834,128.86617826617834,-521564195.091726,-521564195.091726,3.61988101975085,3.61988101975085,37225759.63538644,37225759.63538644,909505007.5344759,909505007.5344759
3.13,-48.715018315018305,-48.715018315018305,0.411721611721624,0.411721611721624,126.89499389499396,126.89499389499396,-508764003.708752,-508764003.708752,3.617719336545864,3.617719336545864,37225936.29911612,37225936.29911612,909330704.1686743,909330704.1686743
3.14,-48.43369963369963,-48.43369963369963,6.361904761904774,6.361904761904774,119.01025641025647,119.01025641025647,-495849053.67313135,-495849053.67313135,3.6155168384411276,3.6155168384411276,37226112.38800158,37226112.38800158,909162559.37964,909162559.37964
3.15,-51.621978021978016,-51.621978021978016,9.432967032967046,9.432967032967046,120.98144078144084,120.98144078144084,-482828451.90962833,-482828451.90962833,3.613275394413781,3.613275394413781,37226287.74374939,37226287.74374939,909000771.5433457,909000771.5433457
3.16,-38.11868131868132,-38.11868131868132,10.584615384615397,10.584615384615397,117.03907203907208,117.03907203907208,-469711360.1165878,-469711360.1165878,3.6109968999901985,3.6109968999901985,37226462.21095754,37226462.21095754,908845534.9935442,908845534.9935442
3.17,-22.55238095238095,-22.55238095238095,6.841758241758255,6.841758241758255,130.8373626373627,130.8373626373627,-456506988.96999454,-456506988.96999454,3.6086832757133243,3.6086832757133243,37226635.63721491,37226635.63721491,908697039.8659222,908697039.8659222
3.18,-27.897435897435898,-27.897435897435898,3.6747252747252874,3.6747252747252874,109.1543345543346,109.1543345543346,-443224592.2982084,-443224592.2982084,3.606336465590224,3.606336465590224,37226807.87319625,37226807.87319625,908555471.9448893,908555471.9448893
3.19,2.953846153846153,2.953846153846153,1.1794871794871917,1.1794871794871917,112.11111111111117,112.11111111111117,-429873461.2310627,-429873461.2310627,3.6039584355212075,3.6039584355212075,37226978.772753164,37226978.772753164,908421012.5131329,908421012.5131329
3.2,25.74065934065934,25.74065934065934,4.922344322344335,4.922344322344335,110.63272283272288,110.63272283272288,-416462918.32702893,-416462918.32702893,3.601551171711717,3.601551171711717,37227148.19300045,37227148.19300045,908293838.2040479,908293838.2040479
3.21,37.36849816849817,37.36849816849817,2.5230769230769354,2.5230769230769354,105.70476190476197,105.70476190476197,-403002311.68216157,-403002311.68216157,3.599116679068287,3.599116679068287,37227315.99439843,37227315.99439843,908174120.8571512,908174120.8571512
3.22,43.08864468864469,43.08864468864469,3.1948717948718075,3.1948717948718075,106.19755799755805,106.19755799755805,-389501009.02454895,-389501009.02454895,3.5966569795799175,3.5966569795799175,37227482.04083078,37227482.04083078,908062027.3766037,908062027.3766037
3.23,51.434432234432236,51.434432234432236,3.578754578754591,3.578754578754591,99.29841269841275,99.29841269841275,-375968391.7980035,-375968391.7980035,3.594174110686097,3.594174110686097,37227646.199677944,37227646.199677944,907957719.5929409,907957719.5929409
3.24,53.87252747252747,53.87252747252747,3.770695970695983,3.770695970695983,99.29841269841275,99.29841269841275,-362413849.2387256,-362413849.2387256,3.5916701236328534,3.5916701236328534,37227808.34188619,37227808.34188619,907861354.1281271,907861354.1281271
3.25,53.02857142857142,53.02857142857142,0.31575091575092806,0.31575091575092806,121.96703296703302,121.96703296703302,-348846772.4486868,-348846772.4486868,3.589147081818132,3.589147081818132,37227968.34203235,37227968.34203235,907773082.2640299,907773082.2640299
3.26,61.93699633699633,61.93699633699633,1.7553113553113675,1.7553113553113675,97.82002442002448,97.82002442002448,-335276548.46946704,-335276548.46946704,3.586607059127859,3.586607059127859,37228126.07838399,37228126.07838399,907693049.8144306,907693049.8144306
3.27,60.24908424908424,60.24908424908424,1.2754578754578876,1.2754578754578876,98.80561660561666,98.80561660561666,-321712554.3602888,-321712554.3602888,3.5840521382640036,3.5840521382640036,37228281.43295514,37228281.43295514,907621397.0006609,907621397.0006609
3.28,54.34139194139194,54.34139194139194,3.290842490842503,3.290842490842503,79.58656898656905,79.58656898656905,-308164151.28398186,-308164151.28398186,3.5814844090660714,3.5814844090660714,37228434.291558005,37228434.291558005,907558258.3309693,907558258.3309693
3.29,44.4014652014652,44.4014652014652,-0.16410256410255178,-0.16410256410255178,95.35604395604402,95.35604395604402,-294640678.6046041,-294640678.6046041,3.578905966827253,3.578905966827253,37228584.543849535,37228584.543849535,907503762.4837167,907503762.4837167
3.3,44.96410256410256,44.96410256410256,6.073992673992687,6.073992673992687,70.22344322344328,70.22344322344328,-281151448.0004386,-281151448.0004386,3.576318910606736,3.576318910606736,37228732.08337449,37228732.08337449,907458032.1944844,907458032.1944844
3.31,-18.613919413919415,-18.613919413919415,6.361904761904774,6.361904761904774,121.47423687423694,121.47423687423694,-267705737.59607095,-267705737.59607095,3.5737253415394483,3.5737253415394483,37228876.80760322,37228876.80760322,907421184.1471964,907421184.1471964
3.32,-41.02564102564103,-41.02564102564103,3.0029304029304154,3.0029304029304154,140.69328449328455,140.69328449328455,-254312786.1172441,-254312786.1172441,3.5711273611446313,3.5711273611446313,37229018.61796591,37229018.61796591,907393328.8693411,907393328.8693411
3.33,-36.618315018315016,-36.618315018315016,1.9472527472527599,1.9472527472527599,166.81147741147748,166.81147741147748,-240981787.07216,-240981787.07216,3.56852706963462,3.56852706963462,37229157.41988184,37229157.41988184,907374570.6313691,907374570.6313691
3.34,-50.121611721611714,-50.121611721611714,10.104761904761915,10.104761904761915,188.00170940170943,188.00170940170943,-227721882.96289298,-227721882.96289298,3.5659265642251734,3.5659265642251734,37229293.12278474,37229293.12278474,907365007.350362,907365007.350362
3.35,-41.30695970695971,-41.30695970695971,5.882051282051295,5.882051282051295,190.95848595848602,190.95848595848602,-214542159.530546,-214542159.530546,3.5633279374487654,3.5633279374487654,37229425.64014356,37229425.64014356,907364730.4980468,907364730.4980468
3.36,-23.396336996336995,-23.396336996336995,8.281318681318695,8.281318681318695,224.9614163614164,224.9614163614164,-201451640.0377655,-201451640.0377655,3.5607332754721326,3.5607332754721326,37229554.88947942,37229554.88947942,907373825.0132244,907373825.0132244
3.37,-12.706227106227105,-12.706227106227105,11.064468864468877,11.064468864468877,215.10549450549453,215.10549450549453,-188459279.59220162,-188459279.59220162,3.558144656419513,3.558144656419513,37229680.792378016,37229680.792378016,907392369.2186991,907392369.2186991
3.38,7.923809523809523,7.923809523809523,6.841758241758255,6.841758241758255,196.37924297924303,196.37924297924303,-175573959.5144752,-175573959.5144752,3.555564148702892,3.555564148702892,37229803.27449784,37229803.27449784,907420434.7427663,907420434.7427663
3.39,27.147252747252747,27.147252747252747,5.7860805860805975,5.7860805860805975,210.6703296703297,210.6703296703297,-162804481.75417846,-162804481.75417846,3.552993809360575,3.552993809360575,37229922.26557457,37229922.26557457,907458086.4453399,907458086.4453399
3.4,24.709157509157507,24.709157509157507,5.3062271062271185,5.3062271062271185,193.91526251526258,193.91526251526258,-150159563.35740995,-150159563.35740995,3.550435682405522,3.550435682405522,37230037.699421324,37230037.699421324,907505382.348761,907505382.348761
3.41,40.838095238095235,40.838095238095235,2.2351648351648477,2.2351648351648477,197.36483516483523,197.36483516483523,-137647830.9893032,-137647830.9893032,3.5478917971846773,3.5478917971846773,37230149.51392468,37230149.51392468,907562373.573374,907562373.573374
3.42,46.37069597069597,46.37069597069597,-2.5633699633699507,-2.5633699633699507,195.39365079365086,195.39365079365086,-125277815.51497781,-125277815.51497781,3.54536416675068,3.54536416675068,37230257.65103714,37230257.65103714,907629104.2779055,907629104.2779055
3.43,52.93479853479853,52.93479853479853,-4.578754578754567,-4.578754578754567,159.41953601953608,159.41953601953608,-113057946.64229959,-113057946.64229959,3.5428547862472555,3.5428547862472555,37230362.05676546,37230362.05676546,907705611.6047127,907705611.6047127
3.44,55.091575091575095,55.091575091575095,-3.523076923076911,-3.523076923076911,151.53479853479857,151.53479853479857,-100996547.62979387,-100996547.62979387,3.5403656313096006,3.5403656313096006,37230462.6811552,37230462.6811552,907791925.6299424,907791925.6299424
3.45,64.46886446886445,64.46886446886445,2.9069597069597193,2.9069597069597193,143.6500610500611,143.6500610500611,-89101830.06301776,-89101830.06301776,3.5378986564810107,3.5378986564810107,37230559.478271775,37230559.478271775,907888069.3186555,907888069.3186555
3.46,56.59194139194138,56.59194139194138,5.882051282051295,5.882051282051295,123.93821733821738,123.93821733821738,-77381888.7026469,-77381888.7026469,3.535455793647112,3.535455793647112,37230652.406177424,37230652.406177424,907994058.4849521,907994058.4849521
3.47,57.15457875457876,57.15457875457876,8.089377289377301,8.089377289377301,126.89499389499396,126.89499389499396,-65844696.40748957,-65844696.40748957,3.5330389504888546,3.5330389504888546,37230741.42690511,37230741.42690511,908109901.7571398,908109901.7571398
3.48,49.090109890109886,49.090109890109886,8.37728937728939,8.37728937728939,108.66153846153853,108.66153846153853,-54498099.135586165,-54498099.135586165,3.530650008955625,3.530650008955625,37230826.50642843,37230826.50642843,908235600.5479838,908235600.5479838
3.49,68.96996336996337,68.96996336996337,4.922344322344335,4.922344322344335,107.18315018315023,107.18315018315023,-43349811.026508026,-43349811.026508026,3.528290823759606,3.528290823759606,37230907.614628494,37230907.614628494,908371149.0300611,908371149.0300611
3.5,9.330402930402931,9.330402930402931,8.953113553113564,8.953113553113564,94.86324786324792,94.86324786324792,-32407409.567908984,-32407409.567908984,3.525963220892683,3.525963220892683,37230984.725257255,37230984.725257255,908516534.1162633,908516534.1162633
3.51,24.33406593406593,24.33406593406593,10.008791208791221,10.008791208791221,92.39926739926744,92.39926739926744,-21678330.849334784,-21678330.849334784,3.5236689961670438,3.5236689961670438,37231057.81589761,37231057.81589761,908671735.44545,908671735.44545
3.52,25.08424908424908,25.08424908424908,13.36776556776558,13.36776556776558,109.1543345543346,109.1543345543346,-11169864.906232178,-11169864.906232178,3.521409913780641,3.521409913780641,37231126.86792055,37231126.86792055,908836725.3732984,908836725.3732984
3.53,-9.986813186813187,-9.986813186813187,9.624908424908439,9.624908424908439,121.96703296703302,121.96703296703302,-889151.1570469051,-889151.1570469051,3.5191877049087226,3.5191877049087226,37231191.86643883,37231191.86643883,909011468.9683465,909011468.9683465
3.54,18.145054945054945,18.145054945054945,5.210256410256422,5.210256410256422,131.33015873015876,131.33015873015876,9156826.063765572,9156826.063765572,3.5170040663225066,3.5170040663225066,37231252.80025824,37231252.80025824,909195924.0132531,909195924.0132531
3.55,14.956776556776557,14.956776556776557,4.826373626373638,4.826373626373638,120.48864468864473,120.48864468864473,18961241.874052376,18961241.874052376,3.514860659036155,3.514860659036155,37231309.661825486,37231309.661825486,909390041.0112773,909390041.0112773
3.56,18.801465201465202,18.801465201465202,7.225641025641038,7.225641025641038,112.60390720390724,112.60390720390724,28517435.110899217,28517435.110899217,3.512759106983095,3.512759106983095,37231362.44717356,37231362.44717356,909593763.1979975,909593763.1979975
3.57,11.956043956043956,11.956043956043956,9.33699633699635,9.33699633699635,90.92087912087918,90.92087912087918,37818912.4935555,37818912.4935555,3.5107009957227895,3.5107009957227895,37231411.15586463,37231411.15586463,909807026.5582455,909807026.5582455
3.58,17.394871794871793,17.394871794871793,10.104761904761915,10.104761904761915,85.00732600732607,85.00732600732607,46859352.67978297,46859352.67978297,3.508687871178973,3.508687871178973,37231455.79092974,37231455.79092974,910029759.8482859,910029759.8482859
3.59,21.23956043956044,21.23956043956044,10.392673992674005,10.392673992674005,62.83150183150189,62.83150183150189,55632610.2131288,55632610.2131288,3.506721238410379,3.506721238410379,37231496.358806916,37231496.358806916,910261884.6232045,910261884.6232045
3.6,6.986080586080585,6.986080586080585,8.37728937728939,8.37728937728939,63.817094017094064,63.817094017094064,64132719.358696036,64132719.358696036,3.5048025604149116,3.5048025604149116,37231532.86927612,37231532.86927612,910503315.2695174,910503315.2695174
3.61,6.892307692307691,6.892307692307691,6.169963369963382,6.169963369963382,53.468376068376124,53.468376068376124,72353897.8250555,72353897.8250555,3.502933256968284,3.502933256968284,37231565.33539262,37231565.33539262,910753959.0429795,910753959.0429795
3.62,17.394871794871793,17.394871794871793,6.169963369963382,6.169963369963382,49.52600732600738,49.52600732600738,80290550.37001589,80290550.37001589,3.501114703497987,3.501114703497987,37231593.773417555,37231593.773417555,911013716.1115686,911013716.1115686
3.63,9.893040293040293,9.893040293040293,8.473260073260086,8.473260073260086,19.46544566544572,19.46544566544572,87937272.28804633,87937272.28804633,3.499348229993513,3.499348229993513,37231618.20274729,37231618.20274729,911282479.603638,911282479.603638
3.64,6.048351648351648,6.048351648351648,11.064468864468877,11.064468864468877,8.131135531135584,8.131135531135584,95288852.77721384,95288852.77721384,3.4976351199537543,3.4976351199537543,37231638.64584003,37231638.64584003,911560135.6611996,911560135.6611996
3.65,9.7992673992674,9.7992673992674,10.680586080586094,10.680586080586094,0.7391941391941916,0.7391941391941916,102340278.18358868,102340278.18358868,3.4959766093723146,3.4959766093723146,37231655.12814135,37231655.12814135,911846563.498312,911846563.498312
3.66,10.643223443223441,10.643223443223441,6.649816849816863,6.649816849816863,-14.044688644688593,-14.044688644688593,109086735.12113328,109086735.12113328,3.4943738857616435,3.4943738857616435,37231667.67800744,37231667.67800744,912141635.4645495,912141635.4645495
3.67,12.61245421245421,12.61245421245421,7.321611721611734,7.321611721611734,-10.10231990231985,-10.10231990231985,115523613.46518226,115523613.46518226,3.4928280872167288,3.4928280872167288,37231676.32662733,37231676.32662733,912445217.1135018,912445217.1135018
3.68,14.3003663003663,14.3003663003663,6.361904761904774,6.361904761904774,-26.857387057387008,-26.857387057387008,121646509.21769667,121646509.21769667,3.4913403015190707,3.4913403015190707,37231681.10794318,37231681.10794318,912757167.2762718,912757167.2762718
3.69,15.51941391941392,15.51941391941392,7.033699633699646,7.033699633699646,-30.306959706959656,-30.306959706959656,127451227.24255684,127451227.24255684,3.4899115652816928,3.4899115652816928,37231682.05856954,37231682.05856954,913077338.1399288,913077338.1399288
3.7,9.611721611721611,9.611721611721611,8.37728937728939,8.37728937728939,-13.5518925518925,-13.5518925518925,132933783.86924261,132933783.86924261,3.488542863135854,3.488542863135854,37231679.217711374,37231679.217711374,913405575.3308668,913405575.3308668
3.71,11.862271062271063,11.862271062271063,7.993406593406606,7.993406593406606,-23.407814407814353,-23.407814407814353,138090409.3633335,138090409.3633335,3.487235126960085,3.487235126960085,37231672.627080694,37231672.627080694,913741718.0030147,913741718.0030147
3.72,13.55018315018315,13.55018315018315,12.504029304029315,12.504029304029315,6.159951159951213,6.159951159951213,142917550.26234522,142917550.26234522,3.485989235152193,3.485989235152193,37231662.33081251,37231662.33081251,914085598.9308462,914085598.9308462
3.73,8.58021978021978,8.58021978021978,8.56923076923078,8.56923076923078,-27.84297924297919,-27.84297924297919,147411871.57550493,147411871.57550493,3.4848060119447886,3.4848060119447886,37231648.3753798,37231648.3753798,914437044.607134,914437044.607134
3.74,4.547985347985347,4.547985347985347,10.29670329670331,10.29670329670331,-15.030280830280779,-15.030280830280779,151570258.84615302,151570258.84615302,3.483686226764868,3.483686226764868,37231630.80950765,37231630.80950765,914795875.3453771,914795875.3453771
3.75,9.517948717948718,9.517948717948718,3.866666666666679,3.866666666666679,-45.09084249084244,-45.09084249084244,155389820.0755484,155389820.0755484,3.4826305936379818,3.4826305936379818,37231609.68408688,37231609.68408688,915161905.3868436,915161905.3868436
3.76,24.24029304029304,24.24029304029304,5.690109890109903,5.690109890109903,-56.91794871794867,-56.91794871794867,158867887.50693992,158867887.50693992,3.48163977063743,3.48163977063743,37231585.05208683,37231585.05208683,915534943.0121592,915534943.0121592
3.77,17.582417582417584,17.582417582417584,4.442490842490854,4.442490842490854,-72.19462759462755,-72.19462759462755,162002019.26885477,162002019.26885477,3.4807143593789336,3.4807143593789336,37231556.96846808,37231556.96846808,915914790.6573621,915914790.6573621
3.78,17.676190476190477,17.676190476190477,4.3465201465201595,4.3465201465201595,-62.338705738705684,-62.338705738705684,164790000.8766464,164790000.8766464,3.4798549045611393,3.4798549045611393,37231525.49009478,37231525.49009478,916301245.0343573,916301245.0343573
3.79,10.549450549450547,10.549450549450547,8.37728937728939,8.37728937728939,-85.00732600732596,-85.00732600732596,167229846.59143165,167229846.59143165,3.479061893552376,3.479061893552376,37231490.67564659,37231490.67564659,916694097.2556858,916694097.2556858
3.8,3.4227106227106225,3.4227106227106225,10.008791208791221,10.008791208791221,-101.76239316239311,-101.76239316239311,169319800.63563347,169319800.63563347,3.4783357560239097,3.4783357560239097,37231452.58553052,37231452.58553052,917093132.9635273,917093132.9635273
3.81,9.236630036630036,9.236630036630036,11.064468864468877,11.064468864468877,-94.37045177045171,-94.37045177045171,171058338.2644472,171058338.2644472,3.4776768636300432,3.4776768636300432,37231411.28179321,37231411.28179321,917498132.4628487,917498132.4628487
3.82,-2.2974358974358973,-2.2974358974358973,11.352380952380964,11.352380952380964,-109.6471306471306,-109.6471306471306,172444166.69262293,172444166.69262293,3.4770855297352297,3.4770855297352297,37231366.82803264,37231366.82803264,917908870.8586177,917908870.8586177
3.83,6.517216117216117,6.517216117216117,10.77655677655679,10.77655677655679,-117.03907203907198,-117.03907203907198,173476225.8760606,173476225.8760606,3.476562009188486,3.476562009188486,37231319.28931084,37231319.28931084,918325118.1969745,918325118.1969745
3.84,3.9853479853479854,3.9853479853479854,6.265934065934078,6.265934065934078,-137.73650793650788,-137.73650793650788,174153689.14780104,174153689.14780104,3.4761064981451906,3.4761064981451906,37231268.73206621,37231268.73206621,918746639.6102862,918746639.6102862
3.85,5.485714285714286,5.485714285714286,6.361904761904774,6.361904761904774,-121.96703296703292,-121.96703296703292,174475963.70808476,174475963.70808476,3.475719133936457,3.475719133936457,37231215.22402681,37231215.22402681,919173195.4659641,919173195.4659641
3.86,3.4227106227106225,3.4227106227106225,5.114285714285727,5.114285714285727,-142.1716727716727,-142.1716727716727,174442690.96824557,174442690.96824557,3.475399994986122,3.475399994986122,37231158.83412395,37231158.83412395,919604541.5189645,919604541.5189645
3.87,-2.7663003663003662,-2.7663003663003662,7.129670329670342,7.129670329670342,-148.08522588522584,-148.08522588522584,174053746.74829674,174053746.74829674,3.4751491007754263,3.4751491007754263,37231099.6324064,37231099.6324064,920040429.0678521,920040429.0678521
3.88,-5.954578754578754,-5.954578754578754,6.9377289377289495,6.9377289377289495,-165.3330891330891,-165.3330891330891,173309241.3281569,173309241.3281569,3.4749664118553976,3.4749664118553976,37231037.68995532,37231037.68995532,920480605.1143318,920480605.1143318
3.89,7.454945054945055,7.454945054945055,5.402197802197814,5.402197802197814,-158.92673992673988,-158.92673992673988,172209519.35255733,172209519.35255733,3.474851829906877,3.474851829906877,37230973.07880026,37230973.07880026,920924812.5261315,920924812.5261315
3.9,-11.487179487179487,-11.487179487179487,8.473260073260086,8.473260073260086,-161.39072039072033,-161.39072039072033,170755159.5897604,170755159.5897604,3.474805197848157,3.474805197848157,37230905.8718358,37230905.8718358,921372790.2031286,921372790.2031286
3.91,-4.923076923076923,-4.923076923076923,3.0989010989011114,3.0989010989011114,-188.49450549450546,-188.49450549450546,168946974.54431173,168946974.54431173,3.4748262999901107,3.4748262999901107,37230836.14273917,37230836.14273917,921824273.2466066,921824273.2466066
3.92,-13.643956043956043,-13.643956043956043,2.1391941391941516,2.1391941391941516,-175.18901098901094,-175.18901098901094,166786009.92414138,166786009.92414138,3.4749148622386605,3.4749148622386605,37230763.965889364,37230763.965889364,922278993.1315231,922278993.1315231
3.93,-8.205128205128204,-8.205128205128204,2.0432234432234555,2.0432234432234555,-169.76825396825393,-169.76825396825393,164273543.9624146,164273543.9624146,3.4750705523444063,3.4750705523444063,37230689.416286945,37230689.416286945,922736677.8816687,922736677.8816687
3.94,-24.52161172161172,-24.52161172161172,1.8512820512820636,1.8512820512820636,-178.14578754578747,-178.14578754578747,161411086.59462753,161411086.59462753,3.475292980199211,3.475292980199211,37230612.56947543,37230612.56947543,923197052.2476022,923197052.2476022
3.95,-11.018315018315018,-11.018315018315018,0.891575091575104,0.891575091575104,-173.21782661782657,-173.21782661782657,158200378.49153322,158200378.49153322,3.4755816981794436,3.4755816981794436,37230533.50146397,37230533.50146397,923659837.8872323,923659837.8872323
3.96,-11.862271062271063,-11.862271062271063,0.603663003663016,0.603663003663016,-170.7538461538461,-170.7538461538461,154643389.94856662,154643389.94856662,3.475936201535625,3.475936201535625,37230452.28865138,37230452.28865138,924124753.5489223,924124753.5489223
3.97,-18.895238095238092,-18.895238095238092,3.0989010989011114,3.0989010989011114,-182.58095238095234,-182.58095238095234,150742319.6325362,150742319.6325362,3.4763559288281303,3.4763559288281303,37230369.00775172,37230369.00775172,924591515.2569925,924591515.2569925
3.98,-21.614652014652012,-21.614652014652012,5.3062271062271185,5.3062271062271185,-176.66739926739922,-176.66739926739922,146499593.1864271,146499593.1864271,3.476840262408527,3.476840262408527,37230283.73572143,37230283.73572143,925059836.4994887,925059836.4994887
3.99,-13.831501831501832,-13.831501831501832,4.3465201465201595,4.3465201465201595,-176.1746031746031,-176.1746031746031,141917861.69325566,141917861.69325566,3.4773885289462427,3.4773885289462427,37230196.54968832,37230196.54968832,925529428.4180864,925529428.4180864
4.0,-25.08424908424908,-25.08424908424908,3.6747252747252874,3.6747252747252874,-169.76825396825393,-169.76825396825393,137000000.0,137000000.0,3.4780000000000006,3.4780000000000006,37230107.52688171,37230107.52688171,925999999.9999994,925999999.9999994
4.01,-38.86886446886446,-38.86886446886446,2.9069597069597193,2.9069597069597193,-169.27545787545782,-169.27545787545782,131749104.90271722,131749104.90271722,3.478673892633628,3.478673892633628,37230016.744565085,37230016.744565085,926471258.271757,926471258.271757
4.02,-58.46739926739926,-58.46739926739926,0.12380952380953614,0.12380952380953614,-190.46568986568982,-190.46568986568982,126168493.19404227,126168493.19404227,3.47940937007569,3.47940937007569,37229924.279969975,37229924.279969975,926942908.494711,926942908.494711
4.03,-65.5003663003663,-65.5003663003663,-5.6344322344322215,-5.6344322344322215,-173.21782661782657,-173.21782661782657,120261699.57435006,120261699.57435006,3.4802055424223726,3.4802055424223726,37229830.2102321,37229830.2102321,927414654.3621447,927414654.3621447
4.04,-90.91282051282052,-90.91282051282052,-8.609523809523798,-8.609523809523798,-141.18608058608055,-141.18608058608055,114032474.4279447,114032474.4279447,3.4810614673830704,3.4810614673830704,37229734.6123293,37229734.6123293,927886198.1978333,927886198.1978333
4.05,-88.66227106227106,-88.66227106227106,-9.28131868131867,-9.28131868131867,-160.40512820512814,-160.40512820512814,107484781.46572275,107484781.46572275,3.4819761510680274,3.4819761510680274,37229637.563021444,37229637.563021444,928357241.155927,928357241.155927
4.06,-89.69377289377287,-89.69377289377287,-5.058608058608046,-5.058608058608046,-126.40219780219776,-126.40219780219776,100622795.23583949,100622795.23583949,3.482948548817402,3.482948548817402,37229539.13879248,37229539.13879248,928827483.4220047,928827483.4220047
4.07,-88.19340659340659,-88.19340659340659,-2.3714285714285595,-2.3714285714285595,-111.61831501831497,-111.61831501831497,93450898.5039851,93450898.5039851,3.4839775660710046,3.4839775660710046,37229439.41579463,37229439.41579463,929296624.4151695,929296624.4151695
4.08,-83.78608058608059,-83.78608058608059,-0.35604395604394373,-0.35604395604394373,-84.02173382173376,-84.02173382173376,85973679.50496452,85973679.50496452,3.485062059278102,3.485062059278102,37229338.46979437,37229338.46979437,929764362.9910314,929764362.9910314
4.09,-81.06666666666665,-81.06666666666665,4.826373626373638,4.826373626373638,-98.31282051282047,-98.31282051282047,78195929.06734142,78195929.06734142,3.4862008368463973,3.4862008368463973,37229236.37612111,37229236.37612111,930230397.6454409,930230397.6454409
4.1,-63.62490842490843,-63.62490842490843,2.7150183150183276,2.7150183150183276,-116.5462759462759,-116.5462759462759,70122637.61299622,70122637.61299622,3.487392660129518,3.487392660129518,37229133.20961762,37229133.20961762,930694426.7188272,930694426.7188272
4.11,-55.46666666666667,-55.46666666666667,0.699633699633712,0.699633699633712,-129.8517704517704,-129.8517704517704,61758992.03351594,61758992.03351594,3.488636244452119,3.488636244452119,37229029.04459298,37229029.04459298,931156148.6009961,931156148.6009961
4.12,-38.024908424908425,-38.024908424908425,0.2197802197802321,0.2197802197802321,-134.28693528693523,-134.28693528693523,53110372.445410416,53110372.445410416,3.489930260171799,3.489930260171799,37228923.954777546,37228923.954777546,931615261.9362408,931615261.9362408
4.13,-24.24029304029304,-24.24029304029304,-0.7399267399267278,-0.7399267399267278,-127.38778998778994,-127.38778998778994,44182348.82622464,44182348.82622464,3.4912733337769293,3.4912733337769293,37228818.0132805,37228818.0132805,932071465.828626,932071465.828626
4.14,-12.799999999999999,-12.799999999999999,3.0029304029304154,3.0029304029304154,-147.59242979242975,-147.59242979242975,34980677.53368699,34980677.53368699,3.492664049019518,3.492664049019518,37228711.29254946,37228711.29254946,932524460.0472908,932524460.0472908
4.15,0.32820512820512804,0.32820512820512804,1.6593406593406714,1.6593406593406714,-157.4483516483516,-157.4483516483516,25511297.71010277,25511297.71010277,3.4941009480821417,3.4941009480821417,37228603.86433248,37228603.86433248,932973945.2316327,932973945.2316327
4.16,5.673260073260072,5.673260073260072,3.0029304029304154,3.0029304029304154,-143.1572649572649,-143.1572649572649,15780327.574275568,15780327.574275568,3.4955825327780325,3.4955825327780325,37228495.79964257,37228495.79964257,933419623.0962194,933419623.0962194
4.17,9.986813186813187,9.986813186813187,1.2754578754578876,1.2754578754578876,-154.98437118437113,-154.98437118437113,5794060.603302125,5794060.603302125,3.497107265783289,3.497107265783289,37228387.16872413,37228387.16872413,933861196.6352917,933861196.6352917
4.18,17.676190476190477,17.676190476190477,1.8512820512820636,1.8512820512820636,-153.01318681318676,-153.01318681318676,-4441038.393345318,-4441038.393345318,3.498673571900236,3.498673571900236,37228278.04102236,37228278.04102236,934298370.3267013,934298370.3267013
4.19,19.83296703296703,19.83296703296703,-1.9875457875457754,-1.9875457875457754,-164.3474969474969,-164.3474969474969,-14918337.304970952,-14918337.304970952,3.5002798393508905,3.5002798393508905,37228168.485154375,37228168.485154375,934730850.3351449,934730850.3351449
4.2,23.396336996336995,23.396336996336995,-5.538461538461527,-5.538461538461527,-166.31868131868129,-166.31868131868129,-25631040.85350125,-25631040.85350125,3.501924421099459,3.501924421099459,37228058.568883255,37228058.568883255,935158344.7145474,935158344.7145474
4.21,19.457875457875453,19.457875457875453,-4.0029304029303905,-4.0029304029303905,-164.84029304029298,-164.84029304029298,-36572194.82742,-36572194.82742,3.5036056362028103,3.5036056362028103,37227948.35909407,37227948.35909407,935580563.6094546,935580563.6094546
4.22,21.8021978021978,21.8021978021978,-1.7956043956043835,-1.7956043956043835,-158.92673992673988,-158.92673992673988,-47734690.41313495,-47734690.41313495,3.5053217711878,3.5053217711878,37227837.921772346,37227837.921772346,935997219.4552776,935997219.4552776
4.23,25.646886446886448,25.646886446886448,1.4673992673992795,1.4673992673992795,-175.68180708180705,-175.68180708180705,-59111268.62105402,-59111268.62105402,3.5070710814543413,3.5070710814543413,37227727.32198497,37227727.32198497,936408027.1772679,936408027.1772679
4.24,17.676190476190477,17.676190476190477,1.9472527472527599,1.9472527472527599,-165.3330891330891,-165.3330891330891,-70694524.80359444,-70694524.80359444,3.50885179270306,3.50885179270306,37227616.623863354,37227616.623863354,936812704.388058,936812704.388058
4.25,16.550915750915745,16.550915750915745,-0.6439560439560317,-0.6439560439560317,-170.7538461538461,-170.7538461538461,-82476913.2622977,-82476913.2622977,3.5106621023863798,3.5106621023863798,37227505.89058888,37227505.89058888,937210971.5836421,937210971.5836421
4.26,9.049084249084249,9.049084249084249,2.2351648351648477,2.2351648351648477,-185.53772893772887,-185.53772893772887,-94450751.9411667,-94450751.9411667,3.5125001811818763,3.5125001811818763,37227395.184380755,37227395.184380755,937602552.3376508,937602552.3376508
4.27,-1.8285714285714285,-1.8285714285714285,2.5230769230769354,2.5230769230769354,-164.3474969474969,-164.3474969474969,-106608227.20329104,-106608227.20329104,3.51436417448666,3.51436417448666,37227284.56648596,37227284.56648596,937987173.4937761,937987173.4937761
4.28,-17.11355311355311,-17.11355311355311,0.12380952380953614,0.12380952380953614,-178.63858363858355,-178.63858363858355,-118941398.68778118,-118941398.68778118,3.5162522039315935,3.5162522039315935,37227174.09717148,37227174.09717148,938364565.356225,938364565.356225
4.29,-32.21098901098901,-32.21098901098901,-0.8358974358974236,-0.8358974358974236,-169.27545787545782,-169.27545787545782,-131442204.24398068,-131442204.24398068,3.518162368914151,3.518162368914151,37227063.835718974,37227063.835718974,938734461.8780407,938734461.8780407
4.3,-38.86886446886446,-38.86886446886446,-3.139194139194127,-3.139194139194127,-154.49157509157504,-154.49157509157504,-144102464.93988475,-144102464.93988475,3.5200927481486013,3.5200927481486013,37226953.84042134,37226953.84042134,939096600.8471755,939096600.8471755
4.31,-77.78461538461538,-77.78461538461538,-3.2351648351648232,-3.2351648351648232,-174.69621489621485,-174.69621489621485,-156913890.1416485,-156913890.1416485,3.522041401232327,3.522041401232327,37226844.16858145,37226844.16858145,939450724.0701839,939450724.0701839
4.32,-76.84688644688644,-76.84688644688644,-4.578754578754567,-4.578754578754567,-183.56654456654454,-183.56654456654454,-169868082.66102627,-169868082.66102627,3.524006370226959,3.524006370226959,37226734.876513354,37226734.876513354,939796577.5533795,939796577.5533795
4.33,-74.12747252747253,-74.12747252747253,-3.715018315018303,-3.715018315018303,-201.30720390720384,-201.30720390720384,-182956543.96754786,-182956543.96754786,3.525985681253104,3.525985681253104,37226626.01954482,37226626.01954482,940133911.681358,940133911.681358
4.34,-67.28205128205127,-67.28205128205127,-6.3062271062270945,-6.3062271062270945,-231.36776556776553,-231.36776556776553,-196170679.46219674,-196170679.46219674,3.527977346097314,3.527977346097314,37226517.65202293,37226517.65202293,940462481.3927343,940462481.3927343
4.35,-48.9025641025641,-48.9025641025641,-6.018315018315006,-6.018315018315006,-230.87496947496942,-230.87496947496942,-209501803.80932322,-209501803.80932322,3.5299793638300243,3.5299793638300243,37226409.827320516,37226409.827320516,940782046.3529769,940782046.3529769
4.36,-43.182417582417585,-43.182417582417585,-3.715018315018303,-3.715018315018303,-258.4715506715506,-258.4715506715506,-222941146.3234908,-222941146.3234908,3.531989722433191,3.531989722433191,37226302.5978454,37226302.5978454,941092371.1242175,941092371.1242175
4.37,-26.397069597069596,-26.397069597069596,-3.523076923076911,-3.523076923076911,-245.16605616605614,-245.16605616605614,-236479856.4079242,-236479856.4079242,3.5340064004362475,3.5340064004362475,37226196.01505115,37226196.01505115,941393225.3319051,941393225.3319051
4.38,5.11062271062271,5.11062271062271,-4.386813186813175,-4.386813186813175,-245.6588522588522,-245.6588522588522,-250109009.0411993,-250109009.0411993,3.5360273685591075,3.5360273685591075,37226090.129449576,37226090.129449576,941684383.8281953,941684383.8281953
4.39,19.926739926739927,19.926739926739927,-4.194871794871783,-4.194871794871783,-240.23809523809518,-240.23809523809518,-263819610.3087861,-263819610.3087861,3.5380505913608724,3.5380505913608724,37225984.99062517,37225984.99062517,941965626.8519492,941965626.8519492
4.4,23.958974358974356,23.958974358974356,-4.770695970695959,-4.770695970695959,-228.90378510378505,-228.90378510378505,-277602602.9760359,-277602602.9760359,3.5400740288929393,3.5400740288929393,37225880.647251286,37225880.647251286,942236740.1852312,942236740.1852312
4.41,35.96190476190476,35.96190476190476,-2.0835164835164717,-2.0835164835164717,-225.94700854700847,-225.94700854700847,-291448872.0991766,-291448872.0991766,3.542095638355147,3.542095638355147,37225777.147107646,37225777.147107646,942497515.3061897,942497515.3061897
4.42,47.87106227106227,47.87106227106227,-1.3157509157509035,-1.3157509157509035,-200.32161172161167,-200.32161172161167,-305349250.67086196,-305349250.67086196,3.5441133757536503,3.5441133757536503,37225674.53709978,37225674.53709978,942747749.5382167,942747749.5382167
4.43,50.96556776556776,50.96556776556776,-5.730402930402918,-5.730402930402918,-212.1487179487179,-212.1487179487179,-319294525.296806,-319294525.296806,3.5461251975591885,3.5461251975591885,37225572.86327988,37225572.86327988,942987246.1952704,942987246.1952704
4.44,50.121611721611714,50.121611721611714,-8.129670329670319,-8.129670329670319,-196.37924297924292,-196.37924297924292,-333275441.90000904,-333275441.90000904,3.5481290623644215,3.5481290623644215,37225472.17086891,37225472.17086891,943215814.723264,943215814.723264
4.45,54.06007326007325,54.06007326007325,-9.665201465201454,-9.665201465201454,-197.85763125763123,-197.85763125763123,-347282711.4490788,-347282711.4490788,3.5501229325390153,3.5501229325390153,37225372.50428048,37225372.50428048,943433270.8374162,943433270.8374162
4.46,57.52967032967033,57.52967032967033,-5.730402930402918,-5.730402930402918,-186.52332112332107,-186.52332112332107,-361307015.7071306,-361307015.7071306,3.552104775881085,3.552104775881085,37225273.90714544,37225273.90714544,943639436.6554586,943639436.6554586
4.47,54.24761904761905,54.24761904761905,-4.674725274725262,-4.674725274725262,-202.29279609279604,-202.29279609279604,-375339012.9977444,-375339012.9977444,3.554072567263808,3.554072567263808,37225176.42233846,37225176.42233846,943834140.8266174,943834140.8266174
4.48,55.18534798534798,55.18534798534798,-2.275457875457863,-2.275457875457863,-192.4368742368742,-192.4368742368742,-389369343.98444766,-389369343.98444766,3.55602429027575,3.55602429027575,37225080.092005074,37225080.092005074,944017218.6562665,944017218.6562665
4.49,50.96556776556776,50.96556776556776,-3.715018315018303,-3.715018315018303,-192.92967032967027,-192.92967032967027,-403388637.4601926,-403388637.4601926,3.55795793885368,3.55795793885368,37224984.957590096,37224984.957590096,944188512.2261554,944188512.2261554
4.5,47.30842490842491,47.30842490842491,0.7956043956044079,0.7956043956044079,-193.91526251526247,-193.91526251526247,-417387516.143285,-417387516.143285,3.5598715189065517,3.5598715189065517,37224891.05986732,37224891.05986732,944347870.5101516,944347870.5101516
4.51,46.74578754578754,46.74578754578754,4.05860805860807,4.05860805860807,-170.7538461538461,-170.7538461538461,-431356602.47622913,-431356602.47622913,3.5617630499293553,3.5617630499293553,37224798.43896958,37224798.43896958,944495149.4853815,944495149.4853815
